STEVAL-MKI197V1 (LSM6DSOX)

A_X [mg] 	 A_Y [mg] 	 A_Z [mg] 	G_X [dps] 	 G_Y [dps] 	 G_Z [dps] 	
85 	 922 	 -349 	-0.665 	 0.21 	 -1.75 	
88 	 921 	 -350 	-1.05 	 0.245 	 -2.065 	
90 	 922 	 -348 	-1.4 	 0.42 	 -1.855 	
90 	 924 	 -351 	-1.61 	 0.455 	 -1.12 	
89 	 923 	 -353 	-1.785 	 0.49 	 -0.035 	
90 	 929 	 -355 	-1.96 	 0.525 	 0.98 	
88 	 929 	 -359 	-2.17 	 0.56 	 1.435 	
90 	 928 	 -361 	-2.38 	 0.595 	 1.085 	
87 	 932 	 -365 	-2.415 	 0.63 	 0.21 	
89 	 933 	 -368 	-2.45 	 0.63 	 -0.7 	
87 	 935 	 -364 	-2.24 	 0.595 	 -1.365 	
83 	 929 	 -360 	-1.925 	 0.455 	 -1.33 	
86 	 927 	 -358 	-1.4 	 0.315 	 -0.735 	
88 	 925 	 -361 	-0.84 	 0.245 	 -0.07 	
91 	 928 	 -364 	-0.245 	 0.175 	 0.28 	
91 	 929 	 -368 	0.315 	 0.175 	 0.21 	
89 	 929 	 -368 	0.875 	 0.14 	 -0.105 	
90 	 930 	 -366 	1.295 	 0.14 	 -0.56 	
90 	 926 	 -365 	1.715 	 0.105 	 -0.945 	
86 	 927 	 -362 	1.96 	 0.14 	 -0.945 	
80 	 927 	 -359 	2.275 	 0.07 	 -0.525 	
77 	 923 	 -358 	2.52 	 -0.105 	 0.14 	
79 	 921 	 -355 	2.66 	 -0.245 	 0.525 	
78 	 919 	 -355 	2.73 	 -0.42 	 0.385 	
75 	 920 	 -355 	2.8 	 -0.595 	 -0.105 	
72 	 923 	 -355 	2.73 	 -0.7 	 -0.805 	
73 	 926 	 -353 	2.66 	 -0.91 	 -1.54 	
74 	 925 	 -351 	2.485 	 -1.015 	 -2.17 	
78 	 927 	 -350 	2.135 	 -1.12 	 -2.59 	
81 	 930 	 -350 	1.855 	 -1.19 	 -2.66 	
86 	 929 	 -350 	1.54 	 -1.12 	 -2.38 	
92 	 926 	 -344 	1.295 	 -1.12 	 -1.82 	
99 	 925 	 -346 	0.945 	 -0.98 	 -1.155 	
98 	 932 	 -350 	0.665 	 -0.805 	 -0.21 	
96 	 933 	 -352 	0.385 	 -0.595 	 0.98 	
100 	 933 	 -349 	0.14 	 -0.42 	 2.03 	
102 	 932 	 -351 	-0.14 	 -0.105 	 2.625 	
103 	 930 	 -350 	-0.28 	 0.21 	 2.87 	
101 	 927 	 -348 	-0.42 	 0.49 	 3.045 	
103 	 924 	 -344 	-0.35 	 0.7 	 3.08 	
104 	 921 	 -343 	-0.245 	 0.945 	 2.765 	
102 	 921 	 -344 	-0.21 	 1.155 	 2.275 	
102 	 929 	 -343 	-0.14 	 1.4 	 2.135 	
97 	 945 	 -345 	-0.105 	 1.47 	 3.255 	
99 	 923 	 -357 	-0.07 	 1.4 	 5.81 	
103 	 948 	 -353 	0.035 	 1.365 	 8.155 	
98 	 937 	 -359 	-0.175 	 1.4 	 9.275 	
107 	 965 	 -362 	-0.35 	 1.33 	 9.345 	
91 	 933 	 -367 	-0.735 	 1.435 	 9.66 	
107 	 940 	 -366 	-0.735 	 1.295 	 9.975 	
108 	 921 	 -351 	-0.875 	 1.365 	 9.1 	
116 	 916 	 -353 	-0.77 	 1.33 	 6.895 	
111 	 903 	 -341 	-0.595 	 1.575 	 4.725 	
111 	 915 	 -338 	-0.175 	 1.575 	 3.185 	
111 	 909 	 -335 	0.21 	 1.505 	 2.695 	
108 	 917 	 -334 	0.595 	 1.505 	 3.29 	
100 	 918 	 -333 	0.84 	 1.435 	 4.69 	
101 	 919 	 -340 	1.085 	 1.225 	 5.635 	
105 	 915 	 -347 	1.26 	 1.12 	 5.04 	
108 	 919 	 -348 	1.26 	 1.155 	 2.87 	
102 	 919 	 -353 	1.12 	 1.155 	 0.105 	
111 	 911 	 -344 	0.84 	 1.225 	 -2.625 	
105 	 929 	 -344 	0.875 	 1.225 	 -4.585 	
102 	 926 	 -338 	0.525 	 1.155 	 -4.655 	
107 	 938 	 -336 	0.28 	 0.98 	 -2.94 	
106 	 928 	 -333 	-0.035 	 0.84 	 -0.14 	
114 	 918 	 -333 	-0.28 	 0.7 	 2.17 	
118 	 908 	 -334 	-0.56 	 0.735 	 2.87 	
120 	 908 	 -338 	-0.77 	 0.805 	 1.54 	
119 	 913 	 -340 	-0.945 	 0.98 	 -0.875 	
115 	 927 	 -343 	-1.295 	 1.12 	 -3.115 	
105 	 939 	 -348 	-1.61 	 1.155 	 -3.99 	
101 	 945 	 -350 	-1.96 	 1.015 	 -3.465 	
102 	 949 	 -351 	-2.275 	 0.805 	 -2.17 	
105 	 944 	 -351 	-2.625 	 0.595 	 -0.945 	
105 	 939 	 -350 	-2.8 	 0.35 	 0 	
105 	 931 	 -351 	-2.94 	 0.245 	 0.385 	
105 	 926 	 -348 	-2.8 	 0.07 	 0.21 	
104 	 920 	 -346 	-2.59 	 -0.105 	 -0.28 	
102 	 914 	 -343 	-2.275 	 -0.315 	 -0.84 	
98 	 915 	 -341 	-1.89 	 -0.455 	 -1.225 	
95 	 916 	 -341 	-1.505 	 -0.735 	 -1.435 	
92 	 920 	 -346 	-1.155 	 -1.015 	 -1.54 	
96 	 922 	 -351 	-0.98 	 -1.295 	 -1.75 	
96 	 928 	 -354 	-0.91 	 -1.365 	 -2.275 	
103 	 932 	 -356 	-0.98 	 -1.54 	 -2.905 	
100 	 937 	 -359 	-1.19 	 -1.645 	 -3.115 	
96 	 940 	 -358 	-1.4 	 -1.75 	 -2.765 	
98 	 934 	 -357 	-1.61 	 -1.96 	 -2.24 	
103 	 929 	 -359 	-1.75 	 -2.065 	 -2.065 	
106 	 924 	 -357 	-1.785 	 -2.065 	 -2.415 	
107 	 916 	 -355 	-1.68 	 -2.1 	 -2.94 	
106 	 916 	 -355 	-1.4 	 -2.135 	 -3.36 	
103 	 915 	 -354 	-1.05 	 -2.17 	 -3.675 	
101 	 916 	 -353 	-0.735 	 -2.275 	 -4.095 	
99 	 919 	 -352 	-0.35 	 -2.345 	 -4.725 	
99 	 919 	 -349 	-0.07 	 -2.45 	 -5.635 	
104 	 920 	 -349 	0.21 	 -2.59 	 -6.58 	
100 	 921 	 -352 	0.665 	 -2.8 	 -7.21 	
102 	 923 	 -349 	1.05 	 -2.94 	 -7.525 	
103 	 923 	 -352 	1.4 	 -3.08 	 -7.805 	
108 	 922 	 -355 	1.75 	 -3.22 	 -8.19 	
110 	 922 	 -357 	2.1 	 -3.325 	 -8.61 	
112 	 924 	 -363 	2.345 	 -3.29 	 -9.24 	
115 	 928 	 -366 	2.52 	 -3.115 	 -10.185 	
119 	 933 	 -371 	2.555 	 -2.975 	 -11.165 	
121 	 936 	 -376 	2.45 	 -2.625 	 -12.04 	
125 	 933 	 -374 	2.31 	 -2.31 	 -12.67 	
128 	 939 	 -374 	2.24 	 -1.89 	 -12.775 	
115 	 951 	 -372 	2.135 	 -1.4 	 -11.865 	
117 	 946 	 -383 	2.065 	 -1.12 	 -9.905 	
118 	 948 	 -388 	2.135 	 -0.805 	 -8.12 	
107 	 954 	 -395 	2.24 	 -0.525 	 -7.035 	
91 	 958 	 -402 	2.415 	 -0.455 	 -6.23 	
77 	 965 	 -396 	2.59 	 -0.35 	 -5.635 	
70 	 960 	 -393 	2.73 	 -0.525 	 -5.565 	
76 	 960 	 -397 	2.975 	 -0.63 	 -6.125 	
77 	 979 	 -389 	3.325 	 -0.665 	 -6.685 	
70 	 999 	 -380 	3.36 	 -0.735 	 -6.23 	
52 	 991 	 -382 	3.395 	 -0.945 	 -4.025 	
62 	 1001 	 -370 	3.465 	 -1.05 	 -1.715 	
64 	 976 	 -354 	3.255 	 -1.05 	 -1.05 	
74 	 961 	 -346 	3.185 	 -0.98 	 -2.555 	
86 	 942 	 -341 	3.01 	 -0.595 	 -5.46 	
101 	 924 	 -336 	2.73 	 0 	 -8.54 	
125 	 920 	 -335 	2.485 	 0.805 	 -10.64 	
137 	 920 	 -342 	2.065 	 1.89 	 -10.535 	
144 	 910 	 -346 	1.575 	 3.08 	 -8.015 	
145 	 882 	 -349 	1.225 	 4.305 	 -4.305 	
157 	 864 	 -373 	1.26 	 5.635 	 -0.875 	
166 	 826 	 -374 	1.225 	 7.07 	 1.19 	
174 	 833 	 -384 	1.89 	 8.61 	 1.575 	
170 	 821 	 -398 	2.415 	 9.975 	 1.785 	
169 	 844 	 -414 	3.115 	 11.305 	 3.15 	
172 	 838 	 -427 	3.57 	 12.215 	 6.02 	
169 	 848 	 -446 	4.13 	 13.23 	 9.52 	
168 	 848 	 -459 	4.34 	 13.86 	 13.09 	
174 	 845 	 -475 	4.375 	 14.525 	 15.82 	
177 	 856 	 -490 	4.34 	 15.05 	 17.325 	
171 	 873 	 -494 	4.41 	 15.435 	 18.06 	
157 	 871 	 -489 	4.375 	 15.54 	 19.04 	
147 	 890 	 -490 	4.515 	 15.12 	 20.685 	
135 	 893 	 -479 	4.69 	 14.49 	 22.54 	
131 	 895 	 -481 	5.145 	 13.51 	 24.115 	
139 	 894 	 -493 	5.6 	 12.215 	 25.13 	
148 	 917 	 -500 	6.335 	 11.13 	 25.13 	
156 	 919 	 -501 	6.545 	 10.01 	 24.15 	
160 	 931 	 -502 	7.245 	 9.065 	 22.33 	
169 	 911 	 -480 	7.49 	 8.26 	 19.705 	
186 	 908 	 -471 	7.91 	 7.455 	 15.925 	
199 	 913 	 -455 	8.12 	 7.07 	 11.62 	
214 	 924 	 -454 	8.225 	 6.685 	 7.945 	
225 	 948 	 -457 	7.91 	 6.475 	 5.985 	
244 	 972 	 -458 	7.63 	 6.23 	 5.95 	
246 	 976 	 -450 	7.175 	 6.125 	 8.015 	
237 	 958 	 -435 	7.35 	 5.6 	 11.795 	
232 	 932 	 -410 	8.365 	 4.935 	 15.155 	
231 	 891 	 -391 	9.94 	 3.99 	 15.855 	
238 	 865 	 -386 	12.6 	 3.08 	 13.335 	
235 	 843 	 -378 	15.82 	 2.17 	 8.4 	
241 	 836 	 -373 	19.39 	 1.26 	 2.695 	
245 	 835 	 -373 	22.855 	 0.315 	 -2.24 	
248 	 843 	 -383 	26.145 	 -0.7 	 -4.76 	
251 	 863 	 -394 	29.085 	 -1.575 	 -4.06 	
262 	 909 	 -416 	31.675 	 -2.625 	 -1.225 	
255 	 923 	 -420 	33.95 	 -3.5 	 1.75 	
264 	 880 	 -406 	35.945 	 -4.515 	 2.835 	
288 	 864 	 -411 	38.395 	 -5.425 	 0.735 	
289 	 864 	 -427 	41.44 	 -6.055 	 -3.85 	
287 	 886 	 -455 	44.765 	 -6.86 	 -8.68 	
279 	 898 	 -442 	47.985 	 -7.77 	 -12.11 	
277 	 904 	 -449 	51.24 	 -9.065 	 -13.58 	
250 	 903 	 -455 	54.32 	 -10.395 	 -12.53 	
236 	 897 	 -464 	57.54 	 -12.18 	 -9.38 	
227 	 878 	 -474 	60.375 	 -14.14 	 -5.775 	
231 	 871 	 -510 	62.895 	 -15.925 	 -3.43 	
233 	 866 	 -541 	65.17 	 -17.325 	 -3.29 	
236 	 869 	 -570 	66.99 	 -18.27 	 -5.95 	
228 	 877 	 -606 	68.25 	 -18.725 	 -11.34 	
200 	 890 	 -648 	69.16 	 -19.04 	 -18.2 	
148 	 909 	 -684 	69.72 	 -19.46 	 -24.045 	
82 	 958 	 -741 	70.42 	 -20.475 	 -27.09 	
16 	 967 	 -799 	71.47 	 -22.19 	 -26.705 	
-18 	 955 	 -835 	72.94 	 -24.605 	 -24.395 	
-31 	 952 	 -896 	75.845 	 -27.23 	 -21.735 	
-53 	 915 	 -943 	80.08 	 -29.47 	 -18.76 	
-27 	 886 	 -998 	85.96 	 -31.71 	 -16.275 	
10 	 863 	 -1056 	93.38 	 -32.83 	 -15.89 	
31 	 849 	 -1106 	101.85 	 -33.005 	 -17.745 	
28 	 846 	 -1146 	111.055 	 -32.655 	 -19.95 	
0 	 846 	 -1178 	120.61 	 -32.025 	 -20.195 	
-47 	 842 	 -1210 	130.41 	 -31.85 	 -17.29 	
-100 	 833 	 -1228 	140 	 -32.27 	 -13.09 	
-123 	 792 	 -1240 	149.03 	 -33.495 	 -10.815 	
-160 	 764 	 -1243 	157.64 	 -34.755 	 -12.355 	
-169 	 742 	 -1250 	165.55 	 -36.26 	 -16.8 	
-191 	 743 	 -1265 	172.865 	 -37.73 	 -22.295 	
-205 	 754 	 -1281 	179.515 	 -39.375 	 -27.545 	
-219 	 733 	 -1295 	185.29 	 -41.02 	 -32.34 	
-231 	 722 	 -1297 	190.68 	 -42.56 	 -37.03 	
-216 	 679 	 -1282 	195.37 	 -44.17 	 -42.28 	
-197 	 656 	 -1278 	199.745 	 -45.43 	 -48.65 	
-173 	 638 	 -1259 	203.91 	 -46.27 	 -55.44 	
-143 	 620 	 -1232 	207.165 	 -46.62 	 -61.005 	
-127 	 603 	 -1217 	209.65 	 -46.515 	 -62.895 	
-117 	 602 	 -1201 	211.505 	 -46.2 	 -60.095 	
-108 	 579 	 -1169 	212.52 	 -46.025 	 -54.32 	
-93 	 548 	 -1145 	212.625 	 -45.885 	 -48.3 	
-76 	 520 	 -1119 	212.135 	 -45.64 	 -44.03 	
-51 	 473 	 -1089 	210.875 	 -44.94 	 -42.14 	
-13 	 439 	 -1079 	209.16 	 -43.82 	 -42.42 	
16 	 433 	 -1090 	207.025 	 -42.035 	 -44.45 	
36 	 420 	 -1077 	204.575 	 -39.55 	 -47.74 	
49 	 370 	 -1054 	201.25 	 -36.47 	 -51.135 	
56 	 332 	 -1049 	198.065 	 -33.145 	 -53.305 	
51 	 305 	 -1031 	194.985 	 -29.61 	 -53.41 	
50 	 273 	 -1007 	191.8 	 -26.32 	 -51.555 	
39 	 248 	 -1001 	188.79 	 -23.345 	 -48.055 	
23 	 244 	 -998 	186.13 	 -20.615 	 -43.575 	
12 	 190 	 -977 	183.505 	 -18.27 	 -39.585 	
1 	 111 	 -968 	181.405 	 -16.24 	 -38.325 	
-24 	 39 	 -974 	180.285 	 -14.175 	 -40.775 	
-66 	 12 	 -985 	180.04 	 -12.32 	 -46.585 	
-121 	 -29 	 -993 	180.46 	 -10.675 	 -54.11 	
-174 	 -120 	 -969 	181.44 	 -9.205 	 -60.83 	
-172 	 -279 	 -914 	183.435 	 -8.295 	 -64.12 	
-257 	 -478 	 -694 	187.285 	 -7.455 	 -63.63 	
-462 	 -1154 	 -133 	192.36 	 -7.21 	 -57.54 	
-801 	 -2169 	 925 	201.285 	 -7.98 	 -39.375 	
-948 	 -2530 	 2025 	204.89 	 -13.02 	 -6.16 	
-1247 	 -1952 	 2460 	181.545 	 -21.525 	 41.37 	
-1156 	 -130 	 1954 	122.64 	 -29.82 	 72.45 	
-985 	 909 	 1393 	11.445 	 -23.59 	 57.33 	
-241 	 2084 	 617 	-138.25 	 -10.395 	 9.765 	
132 	 3222 	 -402 	-322.21 	 14.735 	 8.68 	
659 	 4398 	 -2034 	-506.45 	 39.06 	 101.045 	
1309 	 4711 	 -3614 	-666.68 	 80.535 	 223.615 	
1953 	 3755 	 -4517 	-784.91 	 138.565 	 278.46 	
1654 	 1677 	 -3816 	-822.535 	 199.395 	 259.735 	
832 	 -1011 	 -2038 	-764.785 	 235.13 	 215.25 	
360 	 -2291 	 -339 	-606.13 	 233.905 	 158.83 	
341 	 -2918 	 486 	-405.895 	 196.105 	 96.95 	
90 	 -2350 	 381 	-174.405 	 143.78 	 62.16 	
-262 	 -1039 	 -10 	53.48 	 80.465 	 80.85 	
-664 	 142 	 -700 	237.3 	 13.44 	 114.38 	
-1059 	 842 	 -1391 	358.47 	 -50.89 	 97.16 	
-1135 	 1203 	 -2040 	423.815 	 -103.53 	 15.33 	
-895 	 1597 	 -2316 	443.905 	 -137.69 	 -75.25 	
-615 	 1456 	 -2268 	426.895 	 -152.25 	 -115.64 	
-208 	 1234 	 -2067 	394.135 	 -155.995 	 -113.295 	
6 	 883 	 -1755 	351.61 	 -148.4 	 -103.705 	
117 	 717 	 -1531 	307.825 	 -134.12 	 -104.93 	
211 	 591 	 -1382 	261.625 	 -115.395 	 -111.685 	
177 	 504 	 -1338 	217.42 	 -94.71 	 -109.585 	
146 	 408 	 -1291 	176.33 	 -77.14 	 -87.15 	
44 	 217 	 -1202 	138.705 	 -61.81 	 -49.455 	
-28 	 1 	 -1129 	106.26 	 -51.24 	 -15.365 	
-77 	 -192 	 -1077 	79.87 	 -43.19 	 3.955 	
-253 	 -234 	 -995 	60.305 	 -36.645 	 13.93 	
-302 	 -287 	 -978 	46.34 	 -34.265 	 21.665 	
-353 	 -343 	 -921 	38.115 	 -31.535 	 25.165 	
-305 	 -387 	 -888 	34.195 	 -30.065 	 21 	
-305 	 -410 	 -826 	35.21 	 -28 	 11.27 	
-274 	 -466 	 -758 	39.515 	 -26.67 	 1.015 	
-253 	 -456 	 -716 	47.425 	 -25.2 	 -6.405 	
-206 	 -432 	 -692 	57.75 	 -24.535 	 -10.08 	
-161 	 -447 	 -667 	68.635 	 -23.555 	 -11.27 	
-141 	 -447 	 -643 	79.975 	 -22.365 	 -12.005 	
-119 	 -440 	 -615 	90.265 	 -21.14 	 -13.93 	
-92 	 -428 	 -625 	99.47 	 -19.6 	 -16.975 	
-40 	 -389 	 -631 	106.96 	 -17.885 	 -20.615 	
-47 	 -360 	 -629 	112.595 	 -15.225 	 -24.185 	
-48 	 -375 	 -623 	116.165 	 -13.02 	 -27.055 	
-80 	 -380 	 -639 	118.72 	 -10.745 	 -28.35 	
-116 	 -406 	 -637 	120.4 	 -9.065 	 -28.14 	
-146 	 -468 	 -617 	121.345 	 -8.05 	 -27.335 	
-156 	 -506 	 -624 	122.535 	 -7.665 	 -27.51 	
-162 	 -560 	 -619 	123.585 	 -7.455 	 -29.295 	
-134 	 -643 	 -619 	124.88 	 -7.49 	 -32.83 	
-106 	 -730 	 -615 	126.875 	 -6.965 	 -37.415 	
-109 	 -823 	 -605 	129.535 	 -6.02 	 -42.525 	
-132 	 -901 	 -593 	133.105 	 -5.215 	 -48.825 	
-146 	 -902 	 -611 	137.165 	 -4.515 	 -57.12 	
-212 	 -933 	 -618 	141.12 	 -3.115 	 -64.82 	
-238 	 -974 	 -531 	145.915 	 -2.695 	 -70.035 	
-456 	 -1044 	 -232 	151.025 	 -2.24 	 -71.365 	
-731 	 -1212 	 51 	155.54 	 -4.935 	 -64.085 	
-961 	 -2026 	 597 	157.675 	 -8.61 	 -39.445 	
-1012 	 -2803 	 1440 	163.24 	 -16.695 	 1.33 	
-782 	 -2582 	 1939 	160.86 	 -28.91 	 39.34 	
-529 	 -1310 	 2099 	127.12 	 -34.895 	 55.475 	
-1001 	 294 	 1622 	45.29 	 -33.775 	 45.815 	
-766 	 1514 	 772 	-83.3 	 -35.525 	 7.035 	
-224 	 2571 	 -199 	-245.91 	 -27.825 	 -36.19 	
427 	 3396 	 -1520 	-437.675 	 -20.37 	 -16.625 	
624 	 4369 	 -3238 	-628.845 	 -7.42 	 92.785 	
722 	 4379 	 -4970 	-803.67 	 21.98 	 217.91 	
1152 	 3476 	 -6184 	-935.165 	 70.63 	 269.99 	
1508 	 726 	 -5660 	-984.865 	 127.33 	 247.765 	
1146 	 -1529 	 -3290 	-930.23 	 165.865 	 187.075 	
562 	 -2862 	 -1349 	-790.93 	 175.84 	 125.755 	
410 	 -3429 	 -450 	-597.975 	 152.005 	 83.755 	
32 	 -3514 	 -244 	-364.84 	 111.51 	 71.96 	
-211 	 -1671 	 -253 	-107.73 	 58.065 	 120.505 	
-842 	 -1196 	 -577 	95.305 	 11.165 	 182.735 	
-693 	 -206 	 -1162 	257.95 	 -55.65 	 149.625 	
-822 	 393 	 -1738 	358.96 	 -103.425 	 55.65 	
-843 	 837 	 -2193 	415.59 	 -136.885 	 -27.79 	
-574 	 1053 	 -2378 	434.77 	 -156.695 	 -81.095 	
-447 	 1049 	 -2279 	426.09 	 -160.965 	 -105.07 	
-91 	 988 	 -2113 	399.77 	 -158.2 	 -109.55 	
33 	 910 	 -1829 	360.605 	 -144.655 	 -108.045 	
160 	 839 	 -1715 	316.61 	 -128.625 	 -102.97 	
76 	 827 	 -1527 	270.725 	 -109.2 	 -86.835 	
43 	 518 	 -1343 	222.53 	 -91.875 	 -62.615 	
-12 	 193 	 -1167 	178.43 	 -74.515 	 -44.835 	
-28 	 -85 	 -1044 	140.7 	 -60.165 	 -41.055 	
-61 	 -254 	 -952 	110.355 	 -46.83 	 -45.535 	
-151 	 -356 	 -847 	86.52 	 -35.315 	 -47.39 	
-188 	 -446 	 -786 	68.39 	 -26.67 	 -41.09 	
-245 	 -484 	 -733 	56 	 -19.81 	 -28.525 	
-247 	 -489 	 -695 	47.285 	 -14.98 	 -14.245 	
-291 	 -501 	 -682 	41.37 	 -10.745 	 -1.54 	
-292 	 -511 	 -665 	38.01 	 -7.56 	 7.105 	
-335 	 -566 	 -627 	36.54 	 -4.375 	 11.095 	
-343 	 -618 	 -600 	37.03 	 -2.135 	 10.29 	
-366 	 -655 	 -589 	39.13 	 0.035 	 5.355 	
-357 	 -660 	 -587 	42.7 	 1.82 	 -2.73 	
-318 	 -672 	 -587 	46.83 	 3.64 	 -12.425 	
-282 	 -682 	 -593 	51.24 	 6.02 	 -20.965 	
-246 	 -636 	 -611 	56 	 8.295 	 -26.005 	
-232 	 -580 	 -625 	60.2 	 11.095 	 -27.755 	
-216 	 -568 	 -633 	63.63 	 13.685 	 -28.42 	
-195 	 -578 	 -666 	66.57 	 16.31 	 -29.925 	
-193 	 -581 	 -679 	69.265 	 18.9 	 -32.235 	
-187 	 -554 	 -724 	71.715 	 21.07 	 -34.475 	
-211 	 -596 	 -737 	73.43 	 23.1 	 -35.245 	
-222 	 -610 	 -751 	75.53 	 24.29 	 -34.755 	
-229 	 -634 	 -769 	77.245 	 24.885 	 -33.215 	
-240 	 -638 	 -782 	79.205 	 25.2 	 -31.15 	
-231 	 -660 	 -780 	80.64 	 25.06 	 -29.365 	
-216 	 -664 	 -780 	82.11 	 24.955 	 -28.595 	
-230 	 -679 	 -749 	83.125 	 25.06 	 -28.805 	
-314 	 -708 	 -636 	83.965 	 25.13 	 -29.085 	
-485 	 -830 	 -453 	84.315 	 24.29 	 -26.215 	
-763 	 -1162 	 -100 	83.09 	 22.995 	 -13.37 	
-985 	 -2039 	 782 	81.62 	 19.075 	 21.21 	
-1115 	 -3039 	 1902 	77.35 	 12.67 	 86.59 	
-915 	 -2370 	 2009 	59.08 	 4.34 	 159.145 	
-838 	 -154 	 1497 	-1.295 	 8.54 	 177.205 	
-662 	 916 	 468 	-118.79 	 21.875 	 108.745 	
-241 	 2384 	 -533 	-263.83 	 47.11 	 7.945 	
498 	 3338 	 -1748 	-440.79 	 72.52 	 -18.935 	
754 	 4354 	 -3153 	-615.51 	 99.54 	 67.48 	
1017 	 4051 	 -4510 	-778.505 	 136.57 	 204.54 	
1318 	 2386 	 -5224 	-887.32 	 189.805 	 280.49 	
1181 	 15 	 -4220 	-917.49 	 243.32 	 262.22 	
268 	 -1868 	 -2509 	-866.32 	 270.795 	 204.96 	
-402 	 -3044 	 -935 	-747.215 	 258.02 	 139.195 	
-473 	 -3333 	 -464 	-576.065 	 200.655 	 57.12 	
-884 	 -2507 	 327 	-373.485 	 127.085 	 5.25 	
-1164 	 -1308 	 335 	-174.02 	 44.275 	 9.765 	
-864 	 -587 	 -204 	-3.885 	 -39.76 	 1.75 	
-644 	 506 	 -722 	137.025 	 -110.915 	 -58.31 	
-354 	 1155 	 -1256 	230.475 	 -161.595 	 -122.045 	
-249 	 1421 	 -1710 	286.58 	 -189.28 	 -155.645 	
-123 	 1406 	 -1971 	312.06 	 -200.83 	 -157.01 	
11 	 1268 	 -1979 	314.44 	 -197.785 	 -137.515 	
337 	 1124 	 -1875 	299.88 	 -185.325 	 -120.47 	
488 	 981 	 -1714 	275.52 	 -163.415 	 -118.51 	
398 	 875 	 -1508 	246.61 	 -137.305 	 -119.21 	
107 	 792 	 -1299 	215.74 	 -111.44 	 -102.48 	
-86 	 568 	 -1165 	182.77 	 -90.16 	 -71.155 	
-155 	 313 	 -1160 	153.545 	 -73.185 	 -47.075 	
-152 	 172 	 -1141 	128.205 	 -59.29 	 -42.595 	
-226 	 57 	 -1107 	106.225 	 -45.57 	 -49.07 	
-314 	 -17 	 -1037 	87.815 	 -34.195 	 -52.01 	
-351 	 -37 	 -999 	73.675 	 -26.215 	 -44.17 	
-386 	 -96 	 -967 	63 	 -19.88 	 -28.21 	
-386 	 -140 	 -940 	55.72 	 -15.19 	 -12.11 	
-373 	 -179 	 -920 	50.365 	 -10.99 	 -2.8 	
-327 	 -153 	 -947 	46.97 	 -7.245 	 -2.485 	
-333 	 -137 	 -973 	44.975 	 -3.115 	 -8.855 	
-320 	 -174 	 -969 	43.715 	 0.84 	 -18.97 	
-254 	 -197 	 -987 	43.855 	 4.76 	 -31.71 	
-195 	 -204 	 -987 	45.605 	 8.855 	 -45.01 	
-162 	 -223 	 -975 	48.265 	 13.125 	 -55.545 	
-149 	 -199 	 -960 	51.87 	 17.115 	 -61.565 	
-142 	 -216 	 -947 	55.79 	 20.685 	 -62.51 	
-146 	 -246 	 -944 	60.305 	 23.625 	 -59.045 	
-163 	 -247 	 -948 	65.345 	 26.04 	 -52.22 	
-190 	 -233 	 -947 	70.595 	 27.825 	 -43.19 	
-189 	 -268 	 -953 	75.635 	 28.875 	 -32.865 	
-186 	 -295 	 -970 	81.305 	 29.855 	 -23.415 	
-166 	 -331 	 -926 	86.905 	 30.555 	 -17.5 	
-183 	 -407 	 -920 	92.12 	 31.395 	 -15.645 	
-184 	 -428 	 -952 	98 	 31.605 	 -17.29 	
-186 	 -466 	 -957 	103.18 	 32.095 	 -20.825 	
-213 	 -488 	 -972 	108.43 	 32.235 	 -24.465 	
-254 	 -541 	 -945 	113.12 	 31.92 	 -26.985 	
-270 	 -628 	 -919 	117.565 	 31.045 	 -28.42 	
-305 	 -732 	 -898 	121.52 	 30.415 	 -30.415 	
-351 	 -768 	 -825 	125.615 	 29.4 	 -35.385 	
-484 	 -1023 	 -651 	126.07 	 29.365 	 -41.58 	
-708 	 -1463 	 -262 	125.86 	 28.245 	 -46.2 	
-568 	 -1748 	 160 	124.18 	 24.5 	 -49.245 	
-485 	 -2181 	 644 	112.735 	 23.94 	 -43.365 	
-361 	 -1936 	 682 	86.73 	 22.75 	 -25.27 	
-922 	 -688 	 761 	35.525 	 24.99 	 -4.445 	
-1300 	 108 	 515 	-52.815 	 21.14 	 -3.08 	
-989 	 880 	 116 	-166.355 	 19.285 	 -34.3 	
-440 	 1507 	 -439 	-302.96 	 14.875 	 -60.165 	
-210 	 2717 	 -1281 	-448.28 	 11.305 	 -17.36 	
-130 	 3488 	 -2394 	-593.74 	 12.46 	 97.965 	
229 	 3656 	 -3585 	-718.305 	 24.745 	 212.8 	
610 	 2100 	 -4017 	-805.35 	 60.48 	 273.175 	
820 	 34 	 -3030 	-813.12 	 103.67 	 270.97 	
909 	 -1384 	 -1554 	-752.08 	 132.3 	 213.29 	
685 	 -2369 	 -645 	-624.435 	 139.055 	 112.7 	
440 	 -2470 	 -140 	-441.77 	 111.335 	 17.605 	
198 	 -1870 	 97 	-231.595 	 68.215 	 -0.21 	
-281 	 -974 	 -64 	-21.245 	 23.765 	 43.995 	
-311 	 -236 	 -575 	159.705 	 -31.745 	 53.375 	
-503 	 685 	 -1184 	297.745 	 -80.255 	 -1.575 	
-522 	 1085 	 -1907 	383.11 	 -117.775 	 -66.115 	
-551 	 1536 	 -2227 	430.325 	 -138.53 	 -98.63 	
-414 	 1498 	 -2263 	436.52 	 -148.82 	 -90.65 	
-112 	 1304 	 -2155 	419.37 	 -150.57 	 -71.54 	
151 	 1102 	 -1954 	388.71 	 -143.745 	 -66.115 	
197 	 931 	 -1733 	350.315 	 -127.995 	 -67.27 	
154 	 783 	 -1560 	311.955 	 -109.515 	 -60.9 	
140 	 578 	 -1397 	275.24 	 -91.7 	 -45.045 	
13 	 296 	 -1241 	242.235 	 -74.2 	 -26.32 	
-109 	 136 	 -1079 	214.55 	 -59.675 	 -14.245 	
-101 	 -130 	 -1048 	190.855 	 -46.62 	 -15.89 	
-132 	 -171 	 -1021 	173.425 	 -34.58 	 -27.72 	
-137 	 -177 	 -990 	157.675 	 -24.045 	 -34.23 	
-259 	 -172 	 -930 	143.255 	 -13.72 	 -25.69 	
-237 	 -194 	 -920 	129.99 	 -7.105 	 -8.855 	
-277 	 -239 	 -919 	119.175 	 -0.455 	 4.76 	
-267 	 -382 	 -895 	110.075 	 4.9 	 9.87 	
-293 	 -504 	 -832 	103.915 	 10.36 	 5.81 	
-305 	 -543 	 -771 	100.59 	 14.735 	 -5.355 	
-306 	 -544 	 -748 	99.26 	 18.34 	 -19.32 	
-292 	 -537 	 -728 	99.295 	 21.315 	 -31.675 	
-258 	 -558 	 -705 	100.065 	 24.115 	 -39.76 	
-219 	 -581 	 -690 	101.325 	 26.635 	 -43.225 	
-151 	 -573 	 -691 	103.075 	 29.015 	 -43.26 	
-119 	 -556 	 -686 	104.79 	 31.745 	 -40.25 	
-73 	 -534 	 -681 	106.05 	 34.265 	 -33.95 	
-73 	 -551 	 -655 	107.17 	 36.89 	 -24.71 	
-69 	 -570 	 -640 	108.325 	 38.605 	 -15.435 	
-96 	 -587 	 -628 	109.725 	 40.04 	 -8.785 	
-129 	 -642 	 -602 	111.125 	 40.74 	 -5.81 	
-151 	 -705 	 -593 	113.015 	 40.88 	 -6.755 	
-158 	 -771 	 -605 	115.29 	 40.6 	 -11.025 	
-152 	 -831 	 -622 	118.195 	 40.075 	 -18.235 	
-132 	 -918 	 -666 	121.415 	 39.27 	 -28.245 	
-152 	 -984 	 -645 	125.16 	 39.06 	 -39.865 	
-274 	 -997 	 -431 	130.06 	 38.045 	 -50.12 	
-678 	 -1209 	 -106 	133.245 	 35.805 	 -53.235 	
-1328 	 -1934 	 658 	136.36 	 28.875 	 -41.965 	
-1769 	 -3322 	 1829 	137.515 	 13.965 	 -13.16 	
-1895 	 -3913 	 2575 	136.255 	 -11.97 	 17.115 	
-1162 	 -1278 	 2274 	103.355 	 -37.555 	 6.965 	
-1819 	 1071 	 1334 	-0.385 	 -46.69 	 -57.19 	
-1496 	 2297 	 457 	-142.765 	 -71.015 	 -138.495 	
-673 	 3179 	 -340 	-323.33 	 -81.585 	 -153.265 	
196 	 3990 	 -1647 	-522.025 	 -101.43 	 -76.685 	
745 	 4634 	 -3398 	-712.985 	 -105.56 	 39.445 	
973 	 4803 	 -5062 	-883.505 	 -86.66 	 138.04 	
1785 	 3500 	 -6158 	-1009.12 	 -51.1 	 205.52 	
1809 	 625 	 -5291 	-1043.67 	 9.555 	 244.3 	
1262 	 -1768 	 -3109 	-971.25 	 61.565 	 251.685 	
321 	 -3069 	 -820 	-813.855 	 94.045 	 207.27 	
207 	 -3806 	 -228 	-621.53 	 82.495 	 91.84 	
-408 	 -2960 	 -219 	-375.795 	 46.935 	 -8.89 	
-549 	 -1275 	 -267 	-121.695 	 -2.38 	 3.01 	
-925 	 -463 	 -547 	84.35 	 -41.335 	 51.975 	
-612 	 467 	 -1093 	244.965 	 -91.455 	 21.525 	
-406 	 1123 	 -1610 	349.16 	 -120.785 	 -53.795 	
-315 	 1436 	 -2048 	407.855 	 -133.805 	 -100.73 	
-72 	 1554 	 -2220 	429.275 	 -134.575 	 -103.67 	
264 	 1496 	 -2150 	419.685 	 -125.23 	 -92.12 	
470 	 1370 	 -1958 	391.615 	 -108.36 	 -86.275 	
230 	 1059 	 -1618 	354.305 	 -86.59 	 -71.33 	
-49 	 738 	 -1330 	314.335 	 -70.07 	 -31.115 	
-306 	 462 	 -1129 	275.94 	 -58.45 	 22.26 	
-444 	 106 	 -1033 	238.245 	 -51.45 	 53.62 	
-514 	 -61 	 -1002 	204.435 	 -45.85 	 38.85 	
-509 	 -220 	 -1016 	172.585 	 -39.55 	 -10.745 	
-489 	 -118 	 -1066 	146.02 	 -33.845 	 -61.18 	
-539 	 -86 	 -1028 	121.345 	 -28.315 	 -80.92 	
-578 	 -101 	 -988 	100.275 	 -26.81 	 -66.045 	
-526 	 -155 	 -980 	83.86 	 -27.405 	 -35.245 	
-490 	 -285 	 -947 	71.085 	 -27.615 	 -8.505 	
-391 	 -346 	 -953 	61.88 	 -27.93 	 3.85 	
-320 	 -319 	 -994 	56.105 	 -26.81 	 1.575 	
-336 	 -350 	 -965 	52.15 	 -24.08 	 -7.84 	
-324 	 -391 	 -930 	50.505 	 -21.595 	 -17.955 	
-295 	 -412 	 -887 	51.38 	 -19.005 	 -27.055 	
-273 	 -436 	 -853 	53.935 	 -16.415 	 -35.315 	
-239 	 -405 	 -846 	57.75 	 -13.37 	 -42.63 	
-224 	 -357 	 -833 	62.265 	 -10.22 	 -47.145 	
-212 	 -356 	 -825 	66.5 	 -7.105 	 -46.655 	
-227 	 -340 	 -802 	71.015 	 -4.13 	 -39.69 	
-240 	 -335 	 -784 	75.215 	 -1.61 	 -27.755 	
-268 	 -308 	 -826 	79.45 	 0.14 	 -14.84 	
-277 	 -325 	 -825 	83.615 	 1.75 	 -4.515 	
-296 	 -399 	 -805 	87.57 	 3.185 	 1.015 	
-299 	 -471 	 -801 	92.295 	 4.48 	 0.91 	
-318 	 -540 	 -796 	97.475 	 5.74 	 -3.535 	
-321 	 -561 	 -806 	103.39 	 6.79 	 -10.29 	
-315 	 -577 	 -810 	109.13 	 7.945 	 -17.15 	
-295 	 -596 	 -802 	114.765 	 9.065 	 -22.4 	
-276 	 -602 	 -809 	120.12 	 10.325 	 -25.445 	
-263 	 -625 	 -812 	125.44 	 11.62 	 -27.125 	
-264 	 -689 	 -749 	130.83 	 13.055 	 -28.245 	
-456 	 -888 	 -501 	136.08 	 15.12 	 -26.845 	
-699 	 -1317 	 -73 	142.31 	 15.015 	 -19.285 	
-905 	 -2505 	 647 	148.4 	 14.49 	 0.735 	
-991 	 -3773 	 2142 	159.74 	 11.235 	 28.35 	
-636 	 -3550 	 2803 	158.235 	 2.485 	 35.315 	
-705 	 -1103 	 2956 	115.08 	 6.335 	 -4.515 	
-1799 	 1076 	 2425 	5.11 	 7.56 	 -71.26 	
-1507 	 2526 	 1561 	-154.105 	 -7 	 -101.115 	
-1097 	 3551 	 497 	-354.445 	 -14.21 	 -45.955 	
-390 	 4045 	 -1151 	-575.015 	 -22.89 	 36.4 	
-2 	 5203 	 -3246 	-783.335 	 -18.06 	 97.055 	
210 	 5398 	 -5223 	-969.955 	 0.455 	 156.695 	
592 	 3880 	 -6129 	-1099.63 	 37.415 	 218.96 	
921 	 912 	 -4933 	-1124.87 	 87.255 	 254.38 	
507 	 -1542 	 -2833 	-1043.07 	 130.97 	 246.785 	
-6 	 -2677 	 -828 	-879.55 	 151.62 	 190.575 	
57 	 -3711 	 -711 	-677.04 	 134.575 	 70.77 	
-284 	 -2249 	 -161 	-402.955 	 86.835 	 -7.245 	
-520 	 -1231 	 -102 	-151.305 	 45.15 	 54.705 	
-600 	 -789 	 -511 	66.01 	 2.065 	 115.675 	
-123 	 126 	 -1031 	243.075 	 -48.965 	 63.21 	
6 	 827 	 -1567 	361.9 	 -77 	 -14.245 	
272 	 1305 	 -2067 	431.795 	 -92.68 	 -44.205 	
164 	 1565 	 -2244 	460.25 	 -93.73 	 -35.77 	
240 	 1568 	 -2259 	454.545 	 -94.185 	 -30.345 	
-7 	 1448 	 -2038 	427.455 	 -85.575 	 -43.05 	
-235 	 1202 	 -1813 	387.765 	 -77.175 	 -61.46 	
-406 	 1057 	 -1692 	344.33 	 -68.915 	 -77.63 	
-484 	 997 	 -1562 	299.005 	 -61.425 	 -91.14 	
-530 	 1029 	 -1449 	253.33 	 -55.65 	 -98.245 	
-604 	 932 	 -1455 	210.805 	 -51.905 	 -85.645 	
-513 	 676 	 -1417 	170.45 	 -50.715 	 -50.575 	
-469 	 535 	 -1366 	137.62 	 -48.685 	 -7.98 	
-323 	 227 	 -1273 	108.92 	 -47.845 	 26.6 	
-275 	 51 	 -1184 	88.095 	 -43.575 	 44.1 	
-248 	 -179 	 -1127 	71.225 	 -38.99 	 44.38 	
-309 	 -234 	 -1113 	60.62 	 -32.655 	 32.515 	
-327 	 -247 	 -1073 	53.83 	 -27.335 	 15.47 	
-324 	 -137 	 -1083 	49.315 	 -22.4 	 -1.12 	
-334 	 -20 	 -1104 	45.815 	 -18.2 	 -12.985 	
-364 	 95 	 -1139 	43.68 	 -14.945 	 -17.605 	
-394 	 66 	 -1090 	41.79 	 -12.53 	 -13.125 	
-380 	 -52 	 -988 	41.615 	 -11.27 	 -2.485 	
-273 	 -82 	 -938 	43.855 	 -11.13 	 8.26 	
-276 	 -128 	 -918 	46.97 	 -9.59 	 15.995 	
-221 	 -182 	 -917 	51.1 	 -9.065 	 19.53 	
-217 	 -215 	 -886 	55.86 	 -7.63 	 19.67 	
-152 	 -211 	 -870 	60.865 	 -6.86 	 16.695 	
-149 	 -225 	 -867 	65.905 	 -4.62 	 12.985 	
-121 	 -236 	 -835 	70.91 	 -2.73 	 10.395 	
-120 	 -275 	 -828 	75.845 	 -0.315 	 9.275 	
-112 	 -302 	 -844 	80.92 	 1.645 	 8.82 	
-125 	 -363 	 -826 	86.275 	 3.92 	 10.08 	
-127 	 -388 	 -818 	91.945 	 5.32 	 13.86 	
-208 	 -408 	 -803 	97.65 	 6.405 	 19.32 	
-274 	 -464 	 -788 	103.46 	 5.95 	 23.205 	
-304 	 -545 	 -788 	109.55 	 4.795 	 21.665 	
-277 	 -584 	 -780 	116.06 	 3.15 	 12.11 	
-275 	 -657 	 -781 	122.465 	 2.73 	 -3.85 	
-245 	 -701 	 -775 	129.29 	 2.135 	 -23.275 	
-274 	 -733 	 -763 	136.5 	 2.73 	 -42.315 	
-247 	 -783 	 -763 	143.57 	 2.765 	 -58.17 	
-270 	 -798 	 -762 	151.235 	 3.815 	 -69.23 	
-261 	 -844 	 -748 	158.41 	 4.34 	 -75.46 	
-250 	 -848 	 -725 	166.075 	 5.32 	 -78.26 	
-224 	 -894 	 -684 	172.9 	 6.3 	 -78.96 	
-284 	 -945 	 -583 	179.795 	 8.015 	 -77.595 	
-406 	 -1053 	 -499 	186.515 	 8.575 	 -73.99 	
-705 	 -1178 	 -248 	194.215 	 8.225 	 -67.97 	
-1204 	 -1964 	 326 	201.495 	 5.355 	 -54.32 	
-1757 	 -3060 	 1499 	213.99 	 -4.34 	 -27.86 	
-1648 	 -3955 	 2723 	229.495 	 -23.17 	 9.835 	
-823 	 -2538 	 2978 	230.79 	 -38.43 	 37.765 	
-1164 	 -720 	 2231 	168.035 	 -38.01 	 43.435 	
-915 	 1860 	 988 	61.425 	 -37.17 	 26.53 	
-394 	 2839 	 418 	-101.99 	 -11.305 	 6.51 	
745 	 3596 	 -451 	-303.8 	 19.635 	 -12.635 	
1047 	 4199 	 -1762 	-519.47 	 61.145 	 38.255 	
1338 	 4147 	 -3435 	-717.5 	 107.94 	 158.445 	
1477 	 3542 	 -4913 	-880.53 	 168.7 	 247.205 	
1188 	 2228 	 -5744 	-990.535 	 235.48 	 266.63 	
1031 	 276 	 -4886 	-1014.55 	 288.295 	 217.595 	
509 	 -778 	 -2967 	-955.465 	 300.16 	 93.415 	
-419 	 -1335 	 -1284 	-836.29 	 261.52 	 -16.485 	
-721 	 -2280 	 -327 	-673.435 	 189.805 	 -47.18 	
-541 	 -2527 	 -387 	-457.8 	 97.16 	 -43.225 	
-673 	 -1645 	 -169 	-225.085 	 17.71 	 -6.02 	
-1086 	 -1100 	 -433 	-19.215 	 -45.85 	 30.205 	
-615 	 -290 	 -1069 	159.075 	 -115.325 	 -18.655 	
-573 	 640 	 -1540 	294.84 	 -157.15 	 -93.065 	
-398 	 973 	 -2081 	384.685 	 -182.56 	 -101.71 	
-362 	 1200 	 -2233 	439.145 	 -192.99 	 -61.075 	
-142 	 1117 	 -2186 	458.15 	 -196.28 	 -27.405 	
43 	 931 	 -2196 	455.455 	 -187.425 	 -40.075 	
281 	 828 	 -2202 	441.105 	 -169.33 	 -94.395 	
225 	 917 	 -2071 	419.86 	 -139.475 	 -151.83 	
38 	 875 	 -1830 	391.125 	 -107.52 	 -176.225 	
-127 	 822 	 -1766 	362.11 	 -81.025 	 -158.27 	
-92 	 799 	 -1687 	333.48 	 -60.69 	 -111.755 	
-203 	 495 	 -1444 	302.855 	 -43.015 	 -56.595 	
-241 	 318 	 -1271 	276.325 	 -32.97 	 -7.805 	
-374 	 104 	 -1155 	252.455 	 -24.64 	 25.235 	
-379 	 -51 	 -1099 	231.315 	 -20.02 	 35.42 	
-438 	 -157 	 -1037 	212.905 	 -14.945 	 26.32 	
-492 	 -278 	 -930 	195.44 	 -10.99 	 7.14 	
-517 	 -332 	 -876 	180.985 	 -8.015 	 -16.415 	
-496 	 -404 	 -827 	168.245 	 -5.88 	 -38.535 	
-451 	 -474 	 -771 	157.815 	 -3.395 	 -53.69 	
-432 	 -574 	 -692 	149.135 	 -1.295 	 -60.13 	
-360 	 -593 	 -661 	143.045 	 -0.175 	 -60.305 	
-353 	 -600 	 -605 	137.9 	 1.855 	 -55.265 	
-314 	 -608 	 -569 	133.84 	 3.185 	 -45.045 	
-313 	 -640 	 -515 	130.515 	 4.445 	 -31.29 	
-280 	 -686 	 -470 	128.1 	 5.11 	 -18.445 	
-281 	 -748 	 -406 	126.315 	 6.09 	 -11.305 	
-265 	 -827 	 -355 	125.055 	 7 	 -13.58 	
-239 	 -896 	 -335 	124.495 	 8.575 	 -26.285 	
-198 	 -925 	 -332 	124.6 	 10.535 	 -45.325 	
-185 	 -948 	 -327 	124.81 	 13.09 	 -63.42 	
-182 	 -933 	 -323 	125.51 	 15.54 	 -74.095 	
-203 	 -932 	 -310 	126.07 	 17.71 	 -74.375 	
-206 	 -936 	 -301 	126.735 	 18.9 	 -66.535 	
-211 	 -961 	 -299 	127.295 	 19.565 	 -55.65 	
-222 	 -978 	 -287 	128.205 	 19.985 	 -46.2 	
-227 	 -992 	 -264 	128.45 	 20.195 	 -39.55 	
-256 	 -997 	 -234 	128.765 	 20.23 	 -36.47 	
-292 	 -958 	 -175 	129.045 	 19.95 	 -39.445 	
-386 	 -923 	 0 	128.66 	 19.95 	 -47.845 	
-658 	 -971 	 327 	127.855 	 19.495 	 -52.29 	
-898 	 -1162 	 912 	126.595 	 17.08 	 -38.955 	
-1091 	 -1534 	 1974 	123.34 	 13.72 	 -4.235 	
-910 	 -1581 	 2760 	111.93 	 7.91 	 34.615 	
-604 	 -267 	 2697 	77.07 	 7.91 	 47.355 	
-1039 	 852 	 2175 	-3.535 	 17.85 	 31.5 	
-1266 	 1861 	 1538 	-116.2 	 28.455 	 22.96 	
-507 	 2400 	 597 	-263.76 	 46.41 	 16.135 	
253 	 2966 	 -515 	-431.935 	 74.445 	 -2.695 	
637 	 3353 	 -2028 	-606.13 	 106.715 	 38.045 	
1026 	 3207 	 -3615 	-764.54 	 146.37 	 136.92 	
1418 	 2465 	 -5095 	-895.475 	 198.065 	 189.525 	
1599 	 1831 	 -6175 	-976.99 	 249.76 	 177.17 	
1789 	 284 	 -5805 	-995.05 	 289.065 	 148.645 	
1512 	 -153 	 -4199 	-941.465 	 306.005 	 97.16 	
837 	 -1361 	 -2622 	-846.72 	 290.325 	 38.675 	
383 	 -1852 	 -1358 	-699.16 	 244.615 	 -2.975 	
58 	 -2164 	 -886 	-522.515 	 180.04 	 13.79 	
-308 	 -1903 	 -776 	-324.59 	 116.55 	 90.965 	
-476 	 -1258 	 -797 	-128.03 	 49.245 	 167.93 	
-759 	 -836 	 -849 	33.88 	 -11.69 	 192.01 	
-948 	 -423 	 -1132 	162.155 	 -72.73 	 147.63 	
-827 	 -177 	 -1493 	252.315 	 -127.995 	 61.635 	
-893 	 175 	 -1833 	316.715 	 -164.29 	 -11.025 	
-540 	 439 	 -2063 	355.81 	 -192.255 	 -50.61 	
-357 	 569 	 -2145 	373.695 	 -203.525 	 -65.1 	
-117 	 600 	 -2131 	376.53 	 -206.5 	 -63.035 	
-6 	 576 	 -2022 	369.285 	 -200.725 	 -53.375 	
53 	 438 	 -1870 	354.935 	 -190.575 	 -47.81 	
68 	 334 	 -1835 	337.12 	 -175.665 	 -51.485 	
68 	 357 	 -1699 	318.325 	 -158.76 	 -58.31 	
9 	 320 	 -1654 	297.57 	 -141.085 	 -60.165 	
-67 	 290 	 -1577 	277.97 	 -124.04 	 -53.865 	
-94 	 133 	 -1446 	258.055 	 -108.465 	 -41.825 	
-82 	 23 	 -1305 	239.54 	 -94.745 	 -31.115 	
-150 	 -169 	 -1223 	222.005 	 -83.09 	 -25.76 	
-194 	 -164 	 -1197 	207.2 	 -73.045 	 -25.83 	
-297 	 -235 	 -1076 	191.555 	 -61.95 	 -26.25 	
-363 	 -198 	 -995 	177.03 	 -54.39 	 -26.705 	
-329 	 -253 	 -978 	162.295 	 -47.495 	 -28.07 	
-387 	 -240 	 -937 	149.17 	 -39.2 	 -32.13 	
-304 	 -322 	 -880 	136.5 	 -32.55 	 -37.345 	
-326 	 -390 	 -773 	126.21 	 -24.5 	 -40.67 	
-237 	 -501 	 -678 	117.495 	 -18.55 	 -41.93 	
-226 	 -547 	 -619 	111.23 	 -11.83 	 -41.755 	
-160 	 -579 	 -606 	106.435 	 -6.615 	 -41.02 	
-148 	 -577 	 -599 	103.075 	 -1.085 	 -40.495 	
-117 	 -618 	 -551 	100.205 	 3.325 	 -40.775 	
-129 	 -650 	 -515 	98.385 	 7.63 	 -41.16 	
-138 	 -698 	 -473 	97.37 	 10.675 	 -40.39 	
-181 	 -717 	 -436 	97.405 	 12.95 	 -36.4 	
-225 	 -746 	 -414 	98.105 	 13.51 	 -27.755 	
-300 	 -736 	 -416 	99.435 	 12.95 	 -14.56 	
-363 	 -732 	 -443 	100.975 	 10.71 	 0.42 	
-432 	 -815 	 -433 	102.41 	 8.19 	 13.405 	
-447 	 -886 	 -385 	104.825 	 4.725 	 22.015 	
-444 	 -953 	 -360 	107.485 	 1.26 	 24.78 	
-443 	 -1040 	 -338 	110.355 	 -1.54 	 20.3 	
-427 	 -1073 	 -289 	113.785 	 -3.5 	 8.155 	
-477 	 -1035 	 -152 	117.25 	 -4.585 	 -9.835 	
-686 	 -976 	 130 	119.175 	 -5.04 	 -25.97 	
-1197 	 -982 	 895 	117.6 	 -5.285 	 -28.105 	
-1630 	 -1056 	 2017 	109.2 	 -9.695 	 -11.55 	
-1521 	 -824 	 2355 	83.825 	 -17.08 	 6.16 	
-1222 	 -504 	 2146 	32.655 	 -17.045 	 -7.91 	
-1083 	 453 	 1703 	-45.36 	 -8.12 	 -70.91 	
-1113 	 1562 	 1334 	-159.74 	 11.76 	 -130.69 	
-566 	 2422 	 696 	-301.525 	 22.96 	 -103.425 	
254 	 2335 	 -375 	-465.15 	 43.75 	 11.48 	
740 	 2617 	 -1914 	-625.835 	 80.5 	 122.395 	
1113 	 2623 	 -3477 	-774.13 	 132.895 	 180.67 	
1059 	 2573 	 -4950 	-894.39 	 195.545 	 202.37 	
1335 	 1793 	 -5930 	-972.58 	 253.89 	 209.16 	
1334 	 -457 	 -5047 	-988.96 	 309.05 	 177.905 	
1631 	 -829 	 -3351 	-925.68 	 326.445 	 68.635 	
784 	 -2006 	 -2030 	-826.49 	 312.865 	 -43.155 	
352 	 -2005 	 -1088 	-661.43 	 257.46 	 -70.385 	
407 	 -2784 	 -770 	-467.74 	 190.365 	 -0.07 	
200 	 -1846 	 -530 	-237.125 	 120.995 	 100.03 	
-201 	 -1591 	 -595 	-33.215 	 59.605 	 169.68 	
-618 	 -701 	 -900 	147.805 	 -8.82 	 133.14 	
-255 	 -210 	 -1659 	277.375 	 -82.81 	 26.32 	
-831 	 621 	 -2117 	376.635 	 -124.845 	 -33.635 	
-532 	 726 	 -2466 	431.165 	 -171.045 	 -30.625 	
-627 	 911 	 -2379 	458.955 	 -194.915 	 -22.19 	
-325 	 600 	 -2242 	457.975 	 -214.375 	 -33.95 	
7 	 530 	 -2178 	449.155 	 -217.28 	 -67.06 	
235 	 520 	 -1932 	430.535 	 -207.585 	 -101.325 	
342 	 416 	 -1879 	405.51 	 -189.945 	 -118.755 	
217 	 454 	 -1777 	378.63 	 -167.51 	 -114.275 	
264 	 528 	 -1678 	349.125 	 -148.645 	 -91.665 	
93 	 337 	 -1387 	316.75 	 -126.28 	 -54.635 	
107 	 114 	 -1197 	285.18 	 -111.335 	 -15.19 	
50 	 -173 	 -1056 	256.69 	 -96.215 	 11.97 	
-24 	 -330 	 -908 	232.435 	 -82.355 	 16.66 	
-116 	 -488 	 -832 	210.735 	 -68.985 	 -1.4 	
-179 	 -556 	 -782 	193.13 	 -56.385 	 -35.91 	
-201 	 -588 	 -743 	178.15 	 -44.52 	 -74.13 	
-268 	 -506 	 -706 	165.2 	 -33.95 	 -101.5 	
-274 	 -428 	 -693 	153.23 	 -25.935 	 -111.615 	
-347 	 -404 	 -661 	142.275 	 -19.775 	 -104.125 	
-315 	 -407 	 -641 	132.58 	 -17.115 	 -84.91 	
-344 	 -502 	 -578 	123.41 	 -14.665 	 -60.13 	
-269 	 -597 	 -539 	116.095 	 -14.28 	 -36.4 	
-252 	 -644 	 -516 	110.18 	 -13.195 	 -18.83 	
-182 	 -663 	 -538 	105.035 	 -12.565 	 -12.005 	
-188 	 -725 	 -494 	100.485 	 -10.01 	 -15.54 	
-153 	 -790 	 -447 	96.845 	 -7.77 	 -26.495 	
-165 	 -812 	 -407 	94.395 	 -4.76 	 -41.3 	
-177 	 -811 	 -400 	92.33 	 -2.31 	 -55.895 	
-211 	 -808 	 -408 	90.79 	 -0.035 	 -65.905 	
-224 	 -791 	 -409 	89.74 	 1.155 	 -67.725 	
-283 	 -720 	 -436 	88.9 	 1.47 	 -59.535 	
-369 	 -634 	 -487 	87.5 	 0.455 	 -43.645 	
-441 	 -616 	 -517 	85.4 	 -1.89 	 -27.37 	
-462 	 -678 	 -481 	83.055 	 -5.005 	 -16.66 	
-465 	 -772 	 -440 	81.025 	 -8.575 	 -14.91 	
-452 	 -898 	 -394 	79.695 	 -11.69 	 -21.805 	
-443 	 -975 	 -308 	79.45 	 -14.455 	 -34.545 	
-478 	 -1038 	 -179 	79.73 	 -16.695 	 -48.3 	
-610 	 -1072 	 71 	79.94 	 -18.935 	 -57.75 	
-888 	 -1019 	 527 	79.835 	 -21.91 	 -59.815 	
-1304 	 -1016 	 1358 	73.29 	 -26.46 	 -55.335 	
-1328 	 -738 	 1930 	57.26 	 -36.82 	 -51.66 	
-1112 	 -574 	 1955 	19.565 	 -44.66 	 -55.72 	
-669 	 240 	 1605 	-41.51 	 -47.495 	 -73.78 	
-312 	 1120 	 976 	-137.655 	 -41.685 	 -81.375 	
-103 	 2199 	 334 	-259.035 	 -32.935 	 -37.555 	
700 	 2419 	 -706 	-410.655 	 -16.065 	 49.525 	
1139 	 2550 	 -1944 	-568.575 	 20.125 	 124.67 	
1367 	 2614 	 -3345 	-721.49 	 66.43 	 176.295 	
1002 	 2856 	 -4798 	-850.535 	 123.445 	 225.365 	
809 	 2270 	 -6020 	-946.89 	 181.825 	 263.375 	
634 	 261 	 -5535 	-995.75 	 245.105 	 271.74 	
894 	 -1380 	 -3779 	-963.41 	 281.82 	 230.615 	
389 	 -1801 	 -2412 	-870.1 	 293.685 	 157.08 	
-192 	 -2611 	 -1137 	-739.095 	 270.41 	 104.475 	
-183 	 -3194 	 -566 	-569.87 	 218.295 	 69.755 	
-290 	 -3063 	 -370 	-369.53 	 155.575 	 46.585 	
-107 	 -1675 	 -403 	-164.325 	 83.23 	 65.17 	
-434 	 -1171 	 -607 	7.035 	 25.725 	 110.39 	
-327 	 -266 	 -1039 	153.755 	 -40.81 	 98.175 	
-27 	 254 	 -1636 	255.325 	 -96.075 	 30.205 	
-370 	 875 	 -1960 	324.625 	 -128.8 	 -23.59 	
-88 	 913 	 -2228 	359.66 	 -160.65 	 -38.675 	
-296 	 926 	 -2074 	375.27 	 -173.635 	 -36.19 	
-27 	 569 	 -1975 	373.135 	 -186.515 	 -40.53 	
132 	 463 	 -1832 	366.03 	 -185.045 	 -66.115 	
431 	 322 	 -1870 	352.8 	 -177.835 	 -105.735 	
424 	 424 	 -1878 	338.73 	 -159.32 	 -138.145 	
331 	 374 	 -1715 	321.055 	 -140.28 	 -144.235 	
153 	 350 	 -1597 	302.82 	 -121.45 	 -123.795 	
26 	 248 	 -1492 	284.55 	 -107.625 	 -88.025 	
-41 	 79 	 -1397 	267.085 	 -97.475 	 -50.015 	
-82 	 -137 	 -1242 	251.685 	 -89.635 	 -16.66 	
-180 	 -244 	 -1129 	238.035 	 -83.545 	 7.245 	
-286 	 -267 	 -1117 	226.065 	 -80.29 	 16.975 	
-315 	 -311 	 -1125 	214.165 	 -76.825 	 7.28 	
-299 	 -461 	 -1080 	203.07 	 -71.435 	 -19.495 	
-256 	 -538 	 -1046 	193.83 	 -64.89 	 -53.13 	
-213 	 -542 	 -1029 	186.34 	 -57.155 	 -80.325 	
-202 	 -526 	 -1003 	179.62 	 -48.475 	 -93.38 	
-192 	 -518 	 -952 	173.775 	 -40.145 	 -91.21 	
-154 	 -500 	 -925 	168.385 	 -32.865 	 -77 	
-173 	 -439 	 -895 	163.24 	 -26.25 	 -55.79 	
-156 	 -413 	 -897 	157.85 	 -21.28 	 -34.58 	
-134 	 -489 	 -815 	152.145 	 -16.345 	 -20.475 	
-85 	 -529 	 -786 	147.665 	 -12.04 	 -16.905 	
-42 	 -596 	 -753 	143.395 	 -7.28 	 -23.975 	
-8 	 -674 	 -683 	140.105 	 -2.17 	 -38.01 	
-27 	 -751 	 -613 	137.865 	 3.115 	 -50.995 	
-58 	 -781 	 -547 	137.06 	 7.49 	 -54.915 	
-96 	 -789 	 -494 	136.5 	 10.605 	 -45.99 	
-133 	 -754 	 -478 	136.605 	 12.145 	 -27.475 	
-196 	 -712 	 -486 	136.185 	 12.775 	 -5.81 	
-237 	 -708 	 -491 	135.03 	 12.25 	 12.53 	
-277 	 -743 	 -467 	133.455 	 11.27 	 21.84 	
-272 	 -822 	 -435 	131.74 	 10.01 	 20.09 	
-268 	 -885 	 -387 	130.06 	 9.52 	 8.715 	
-263 	 -974 	 -312 	128.485 	 10.115 	 -7.91 	
-234 	 -967 	 -267 	127.435 	 10.78 	 -25.83 	
-199 	 -931 	 -268 	125.755 	 12.18 	 -42.35 	
-212 	 -834 	 -256 	123.305 	 15.015 	 -56.875 	
-261 	 -813 	 -204 	119.14 	 17.535 	 -67.165 	
-355 	 -790 	 -60 	115.29 	 19.425 	 -71.68 	
-453 	 -716 	 239 	110.075 	 20.195 	 -68.88 	
-734 	 -632 	 864 	102.13 	 19.775 	 -54.565 	
-1011 	 -497 	 1734 	88.27 	 14.14 	 -25.9 	
-1061 	 -782 	 2545 	60.06 	 5.635 	 15.19 	
-668 	 -224 	 2689 	15.925 	 -4.9 	 50.05 	
-532 	 327 	 2071 	-66.955 	 -8.785 	 55.475 	
-850 	 1798 	 1439 	-172.13 	 -11.76 	 39.2 	
-861 	 2266 	 880 	-317.275 	 -11.865 	 54.04 	
-286 	 2251 	 -144 	-480.165 	 -6.79 	 76.51 	
112 	 2443 	 -1469 	-645.435 	 2.24 	 78.47 	
237 	 2844 	 -2966 	-799.96 	 17.465 	 107.765 	
475 	 2785 	 -4642 	-933.31 	 38.57 	 159.005 	
598 	 2571 	 -6045 	-1031 	 73.43 	 181.335 	
823 	 899 	 -6101 	-1085.11 	 110.005 	 181.09 	
797 	 -588 	 -4600 	-1057.84 	 142.765 	 193.795 	
662 	 -1081 	 -3149 	-967.365 	 163.205 	 221.865 	
535 	 -2357 	 -1998 	-836.185 	 173.25 	 237.055 	
331 	 -2489 	 -1218 	-655.795 	 163.345 	 204.645 	
57 	 -2816 	 -820 	-455.77 	 134.61 	 171.465 	
-127 	 -1752 	 -553 	-230.545 	 88.235 	 151.2 	
-105 	 -1413 	 -630 	-44.1 	 36.995 	 123.585 	
-300 	 -360 	 -967 	124.95 	 -13.65 	 70.035 	
101 	 35 	 -1484 	249.2 	 -66.815 	 3.605 	
-244 	 620 	 -1856 	342.79 	 -95.165 	 -46.585 	
-78 	 549 	 -2253 	397.39 	 -122.92 	 -68.495 	
-180 	 638 	 -2284 	430.08 	 -133.175 	 -75.95 	
-104 	 457 	 -2091 	438.55 	 -140.42 	 -72.59 	
-63 	 406 	 -1929 	436.625 	 -140.385 	 -65.03 	
-86 	 350 	 -1680 	424.48 	 -136.15 	 -62.16 	
-110 	 405 	 -1642 	405.825 	 -128.205 	 -70.525 	
-177 	 407 	 -1656 	383.145 	 -117.495 	 -87.22 	
-114 	 428 	 -1617 	358.19 	 -105.245 	 -104.02 	
-266 	 395 	 -1409 	330.645 	 -90.265 	 -108.01 	
-269 	 280 	 -1362 	302.19 	 -79.555 	 -95.445 	
-272 	 230 	 -1289 	275.59 	 -69.895 	 -72.59 	
-194 	 -20 	 -1117 	248.08 	 -61.005 	 -49.35 	
-225 	 -136 	 -947 	222.53 	 -52.045 	 -32.865 	
-123 	 -196 	 -984 	197.4 	 -45.36 	 -26.04 	
-203 	 -142 	 -979 	174.755 	 -35.98 	 -24.675 	
-212 	 -222 	 -909 	151.55 	 -28.805 	 -19.32 	
-287 	 -232 	 -816 	130.06 	 -21.35 	 -6.335 	
-243 	 -367 	 -811 	109.41 	 -16.31 	 7.385 	
-209 	 -379 	 -816 	92.015 	 -11.06 	 13.825 	
-174 	 -449 	 -762 	75.425 	 -5.81 	 13.825 	
-170 	 -472 	 -715 	60.69 	 -0.35 	 11.55 	
-166 	 -453 	 -725 	47.88 	 3.64 	 10.045 	
-176 	 -413 	 -724 	36.785 	 7.315 	 8.89 	
-193 	 -502 	 -691 	26.285 	 9.66 	 8.015 	
-191 	 -543 	 -674 	18.41 	 10.92 	 6.09 	
-210 	 -589 	 -666 	12.11 	 11.235 	 5.88 	
-266 	 -607 	 -642 	7.455 	 10.43 	 10.115 	
-317 	 -602 	 -618 	3.815 	 8.05 	 18.48 	
-365 	 -615 	 -624 	0.63 	 5.04 	 27.3 	
-389 	 -640 	 -632 	-2.135 	 1.085 	 33.39 	
-398 	 -650 	 -655 	-4.62 	 -3.15 	 34.58 	
-394 	 -606 	 -699 	-6.79 	 -7.63 	 30.275 	
-405 	 -552 	 -762 	-9.205 	 -12.635 	 20.055 	
-476 	 -558 	 -763 	-12.04 	 -17.535 	 4.41 	
-525 	 -600 	 -736 	-14.105 	 -24.045 	 -13.79 	
-558 	 -641 	 -713 	-14.945 	 -31.71 	 -30.135 	
-537 	 -644 	 -719 	-14.35 	 -40.425 	 -40.915 	
-519 	 -599 	 -715 	-12.95 	 -49.105 	 -43.365 	
-485 	 -562 	 -709 	-11.62 	 -57.89 	 -36.995 	
-466 	 -589 	 -707 	-10.15 	 -66.15 	 -23.275 	
-464 	 -568 	 -686 	-8.645 	 -74.095 	 -7.77 	
-456 	 -489 	 -752 	-7.735 	 -81.305 	 2.485 	
-461 	 -385 	 -860 	-7.56 	 -87.535 	 3.885 	
-449 	 -465 	 -857 	-8.4 	 -92.54 	 -3.045 	
-446 	 -516 	 -811 	-7.56 	 -97.125 	 -16.485 	
-451 	 -603 	 -757 	-5.705 	 -101.465 	 -33.74 	
-506 	 -696 	 -668 	-2.065 	 -105.035 	 -52.815 	
-521 	 -795 	 -599 	3.01 	 -109.2 	 -69.02 	
-776 	 -839 	 -346 	9.1 	 -113.4 	 -74.06 	
-1249 	 -1231 	 374 	13.405 	 -119.735 	 -56.14 	
-1282 	 -1986 	 1706 	16.975 	 -130.9 	 -5.74 	
-1006 	 -2515 	 2894 	12.04 	 -141.575 	 65.73 	
-693 	 -1713 	 3074 	-15.12 	 -148.33 	 102.83 	
-710 	 -397 	 2458 	-80.5 	 -137.655 	 74.55 	
-154 	 1558 	 1260 	-183.61 	 -119.875 	 19.67 	
433 	 2969 	 -101 	-327.075 	 -90.16 	 20.79 	
615 	 4098 	 -1799 	-493.01 	 -50.61 	 118.02 	
354 	 4373 	 -3449 	-656.915 	 3.465 	 239.435 	
36 	 4174 	 -4745 	-800.345 	 68.845 	 275.905 	
-529 	 3153 	 -5262 	-906.5 	 132.37 	 251.16 	
-911 	 944 	 -4436 	-939.12 	 173.845 	 233.485 	
-1251 	 26 	 -2810 	-880.145 	 189 	 223.055 	
-1362 	 -1744 	 -1499 	-763.315 	 174.965 	 215.32 	
-1198 	 -2588 	 -675 	-583.66 	 136.22 	 178.885 	
-1135 	 -2873 	 -248 	-379.33 	 78.82 	 102.2 	
-938 	 -2164 	 -225 	-164.815 	 13.23 	 -5.775 	
-707 	 -1277 	 -597 	28.805 	 -50.68 	 -111.02 	
-268 	 -217 	 -1025 	192.78 	 -101.115 	 -184.905 	
-60 	 464 	 -1441 	309.19 	 -130.305 	 -211.19 	
-82 	 994 	 -1804 	383.425 	 -143.71 	 -201.74 	
-150 	 1370 	 -1979 	416.64 	 -148.085 	 -186.305 	
-233 	 1495 	 -2002 	415.555 	 -145.495 	 -175.56 	
-418 	 1458 	 -1943 	393.715 	 -140.49 	 -166.67 	
-522 	 1169 	 -1744 	358.015 	 -135.8 	 -163.135 	
-718 	 955 	 -1440 	318.605 	 -131.32 	 -161.7 	
-752 	 621 	 -1214 	276.64 	 -131.11 	 -153.23 	
-818 	 483 	 -1082 	239.89 	 -132.615 	 -137.06 	
-796 	 339 	 -930 	205.345 	 -136.395 	 -114.345 	
-848 	 207 	 -861 	175.175 	 -141.19 	 -86.03 	
-913 	 160 	 -709 	149.205 	 -146.79 	 -59.745 	
-844 	 -38 	 -737 	123.13 	 -150.78 	 -53.97 	
-714 	 -18 	 -926 	102.795 	 -153.37 	 -76.685 	
-638 	 96 	 -961 	85.12 	 -152.635 	 -104.335 	
-860 	 85 	 -859 	66.43 	 -148.855 	 -119.035 	
-751 	 13 	 -900 	57.785 	 -150.045 	 -104.755 	
-663 	 -62 	 -834 	48.37 	 -148.085 	 -85.155 	
-650 	 -322 	 -753 	45.22 	 -146.265 	 -66.92 	
-598 	 -394 	 -645 	45.64 	 -143.5 	 -56.98 	
-631 	 -413 	 -472 	47.285 	 -136.185 	 -53.165 	
-609 	 -533 	 -582 	51.03 	 -130.69 	 -55.825 	
-524 	 -357 	 -729 	58.905 	 -125.16 	 -62.72 	
-649 	 -343 	 -675 	63.805 	 -115.78 	 -66.535 	
-623 	 -305 	 -629 	68.67 	 -108.115 	 -63.385 	
-645 	 -372 	 -561 	72.485 	 -99.155 	 -54.88 	
-639 	 -366 	 -540 	77.525 	 -91.28 	 -44.695 	
-660 	 -447 	 -471 	82.32 	 -83.195 	 -34.51 	
-708 	 -487 	 -401 	87.78 	 -75.355 	 -26.67 	
-737 	 -544 	 -367 	93.065 	 -68.425 	 -24.115 	
-776 	 -544 	 -318 	98.035 	 -60.76 	 -29.82 	
-773 	 -596 	 -367 	102.235 	 -53.41 	 -44.45 	
-788 	 -565 	 -414 	106.89 	 -45.535 	 -64.75 	
-822 	 -630 	 -324 	110.6 	 -37.59 	 -84.035 	
-780 	 -686 	 -284 	114.8 	 -31.15 	 -99.295 	
-785 	 -731 	 -239 	118.72 	 -23.31 	 -106.68 	
-718 	 -685 	 -133 	122.745 	 -16.59 	 -106.19 	
-790 	 -786 	 -56 	124.25 	 -8.785 	 -98.98 	
-646 	 -784 	 -143 	125.65 	 -3.255 	 -91.84 	
-584 	 -741 	 -67 	124.67 	 6.475 	 -88.655 	
-428 	 -901 	 222 	120.19 	 17.885 	 -91.14 	
-36 	 -1318 	 558 	113.225 	 32.41 	 -102.13 	
895 	 -1647 	 1164 	106.54 	 54.285 	 -127.54 	
1594 	 -2311 	 1892 	91.14 	 88.375 	 -151.025 	
2339 	 -1285 	 2344 	70.42 	 124.495 	 -133.525 	
2073 	 -199 	 2583 	16.835 	 163.8 	 0.91 	
1620 	 1807 	 1972 	-60.585 	 190.26 	 258.23 	
1220 	 2756 	 618 	-176.715 	 228.515 	 524.72 	
888 	 3324 	 -752 	-311.815 	 287.14 	 648.06 	
683 	 4095 	 -2666 	-460.46 	 364.875 	 628.495 	
-408 	 5247 	 -4477 	-593.95 	 462 	 602.35 	
-1431 	 5360 	 -6385 	-704.9 	 554.365 	 645.295 	
-2359 	 4913 	 -7342 	-769.58 	 650.16 	 698.285 	
-2166 	 1912 	 -6336 	-777.14 	 731.955 	 679 	
-1496 	 -320 	 -3997 	-687.155 	 773.255 	 505.295 	
-2128 	 -2050 	 -2202 	-569.45 	 753.13 	 210.105 	
-2949 	 -2032 	 -471 	-427.105 	 666.505 	 -9.24 	
-2206 	 -3111 	 -295 	-283.185 	 532.14 	 -57.19 	
-1015 	 -2382 	 -735 	-79.695 	 386.05 	 12.495 	
-1388 	 -1018 	 -265 	113.82 	 272.58 	 175.35 	
-1211 	 -889 	 -421 	266.56 	 147.455 	 303.94 	
-462 	 -338 	 -868 	377.93 	 22.715 	 234.745 	
-518 	 276 	 -1440 	436.03 	 -63.595 	 66.01 	
-150 	 1076 	 -1972 	457.45 	 -122.99 	 -46.76 	
-109 	 1371 	 -2190 	447.615 	 -154.735 	 -69.685 	
143 	 1385 	 -2224 	418.74 	 -177.94 	 -53.655 	
197 	 1314 	 -2079 	378.49 	 -186.9 	 -46.865 	
300 	 1097 	 -1927 	329.14 	 -186.27 	 -61.95 	
303 	 994 	 -1831 	281.12 	 -176.89 	 -83.09 	
276 	 848 	 -1698 	234.5 	 -162.785 	 -91.525 	
236 	 727 	 -1534 	192.85 	 -146.37 	 -79.905 	
182 	 492 	 -1421 	154.42 	 -129.255 	 -53.41 	
175 	 356 	 -1383 	123.41 	 -113.54 	 -23.38 	
156 	 116 	 -1293 	97.685 	 -97.195 	 -0.63 	
119 	 -50 	 -1146 	78.155 	 -80.15 	 5.635 	
111 	 -210 	 -1142 	63.525 	 -64.26 	 -4.48 	
87 	 -126 	 -1194 	55.965 	 -49.175 	 -20.16 	
-18 	 -134 	 -1121 	50.505 	 -34.58 	 -25.235 	
-98 	 -125 	 -1078 	48.23 	 -22.89 	 -15.995 	
-131 	 -178 	 -1043 	48.16 	 -13.23 	 0.98 	
-147 	 -166 	 -1055 	50.68 	 -5.32 	 16.8 	
-135 	 -213 	 -1045 	54.53 	 1.61 	 26.32 	
-143 	 -288 	 -990 	59.85 	 8.33 	 28.14 	
-149 	 -305 	 -967 	66.395 	 13.86 	 24.22 	
-189 	 -284 	 -958 	74.165 	 18.69 	 18.06 	
-248 	 -297 	 -876 	81.9 	 22.365 	 11.41 	
-237 	 -326 	 -841 	89.775 	 25.235 	 4.305 	
-171 	 -294 	 -882 	97.545 	 27.335 	 -3.29 	
-150 	 -283 	 -910 	104.72 	 29.96 	 -9.1 	
-160 	 -300 	 -889 	111.3 	 32.27 	 -9.975 	
-166 	 -294 	 -868 	117.285 	 33.845 	 -4.375 	
-186 	 -287 	 -866 	122.64 	 34.475 	 6.09 	
-216 	 -313 	 -846 	127.295 	 34.3 	 17.5 	
-248 	 -304 	 -846 	131.39 	 33.32 	 25.55 	
-253 	 -345 	 -842 	134.61 	 31.885 	 26.705 	
-269 	 -420 	 -824 	137.585 	 30.24 	 20.195 	
-283 	 -480 	 -795 	140.735 	 28.455 	 8.925 	
-312 	 -512 	 -768 	144.27 	 26.355 	 -2.73 	
-369 	 -536 	 -745 	148.155 	 23.8 	 -11.48 	
-398 	 -559 	 -720 	152.25 	 20.125 	 -16.59 	
-451 	 -626 	 -696 	156.73 	 16.38 	 -18.69 	
-505 	 -629 	 -713 	162.26 	 11.795 	 -18.515 	
-534 	 -604 	 -676 	168.14 	 6.86 	 -18.375 	
-603 	 -769 	 -488 	174.02 	 1.82 	 -20.475 	
-885 	 -1115 	 -175 	182.42 	 -3.64 	 -20.615 	
-1659 	 -1647 	 601 	194.705 	 -11.725 	 -6.475 	
-2906 	 -2450 	 1793 	209.72 	 -28.035 	 27.86 	
-3215 	 -2945 	 2928 	224.77 	 -55.755 	 54.46 	
-1408 	 -1735 	 3038 	225.26 	 -77.595 	 16.695 	
-761 	 -486 	 1783 	171.395 	 -64.89 	 -106.68 	
-891 	 2033 	 905 	81.795 	 -36.715 	 -252.805 	
-941 	 3561 	 309 	-62.195 	 -1.68 	 -266.525 	
572 	 4147 	 -750 	-239.925 	 26.845 	 -140.735 	
1623 	 3922 	 -2185 	-439.6 	 71.505 	 -7.91 	
2097 	 4294 	 -4250 	-626.36 	 126.595 	 71.085 	
2362 	 4010 	 -5958 	-787.78 	 191.38 	 135.835 	
2386 	 3300 	 -7047 	-908.565 	 260.785 	 198.275 	
2174 	 257 	 -6554 	-958.615 	 326.865 	 243.635 	
1691 	 -1660 	 -3790 	-896.945 	 367.465 	 205.625 	
271 	 -3458 	 -1526 	-779.87 	 361.97 	 87.08 	
-366 	 -4110 	 -290 	-606.06 	 295.575 	 -27.405 	
-627 	 -4532 	 -41 	-403.48 	 199.885 	 -63.875 	
-420 	 -3185 	 -400 	-161.21 	 92.295 	 -5.215 	
-768 	 -1671 	 -458 	55.195 	 4.795 	 88.34 	
-923 	 -915 	 -1119 	219.17 	 -85.54 	 94.71 	
-678 	 62 	 -1899 	338.94 	 -168.245 	 2.905 	
-874 	 697 	 -2477 	413.35 	 -218.225 	 -75.39 	
-632 	 952 	 -2767 	449.085 	 -254.135 	 -102.27 	
-285 	 744 	 -2750 	454.44 	 -270.515 	 -112.7 	
38 	 532 	 -2640 	445.235 	 -271.145 	 -135.345 	
274 	 424 	 -2390 	428.19 	 -257.18 	 -164.01 	
344 	 438 	 -2084 	405.615 	 -232.96 	 -178.395 	
392 	 391 	 -1841 	379.61 	 -206.22 	 -167.44 	
361 	 300 	 -1633 	352.94 	 -179.095 	 -135.31 	
389 	 127 	 -1418 	325.535 	 -154.7 	 -94.325 	
354 	 -49 	 -1180 	297.5 	 -131.6 	 -60.76 	
367 	 -236 	 -1136 	270.515 	 -111.965 	 -47.425 	
301 	 -252 	 -1126 	245.595 	 -92.68 	 -53.27 	
192 	 -295 	 -1049 	221.305 	 -74.97 	 -63.875 	
12 	 -295 	 -914 	198.45 	 -59.535 	 -66.22 	
-84 	 -363 	 -836 	176.75 	 -48.72 	 -57.225 	
-153 	 -399 	 -783 	157.955 	 -40.18 	 -43.855 	
-179 	 -511 	 -721 	140.945 	 -33.495 	 -33.25 	
-181 	 -577 	 -657 	126.665 	 -27.72 	 -28.14 	
-195 	 -646 	 -613 	114.415 	 -22.68 	 -26.39 	
-202 	 -685 	 -593 	104.755 	 -18.34 	 -25.76 	
-163 	 -718 	 -574 	96.705 	 -14.525 	 -26.215 	
-114 	 -760 	 -549 	90.125 	 -10.325 	 -29.645 	
-54 	 -768 	 -541 	84.945 	 -6.3 	 -35.35 	
-20 	 -779 	 -515 	80.85 	 -1.75 	 -40.95 	
10 	 -812 	 -477 	77.56 	 2.765 	 -44.905 	
28 	 -846 	 -448 	75.39 	 7.105 	 -47.04 	
28 	 -862 	 -441 	74.2 	 11.095 	 -47.145 	
7 	 -860 	 -439 	73.885 	 14.77 	 -44.94 	
-20 	 -863 	 -440 	74.095 	 17.675 	 -41.09 	
-50 	 -904 	 -422 	74.795 	 20.02 	 -36.645 	
-83 	 -954 	 -403 	76.37 	 21.665 	 -32.025 	
-127 	 -970 	 -396 	78.82 	 22.61 	 -27.86 	
-155 	 -982 	 -378 	81.69 	 22.855 	 -25.48 	
-172 	 -1028 	 -338 	84.665 	 22.82 	 -25.34 	
-181 	 -1053 	 -259 	88.34 	 22.4 	 -27.055 	
-249 	 -1042 	 -84 	92.365 	 21.7 	 -29.4 	
-465 	 -1113 	 215 	95.97 	 20.09 	 -29.365 	
-902 	 -1169 	 735 	98.63 	 16.52 	 -25.27 	
-1314 	 -1191 	 1433 	98.035 	 8.575 	 -19.355 	
-1210 	 -897 	 1987 	87.5 	 -3.325 	 -17.85 	
-776 	 -1048 	 2207 	56.385 	 -10.395 	 -10.78 	
-801 	 -255 	 2098 	7.035 	 -13.79 	 4.27 	
-710 	 838 	 1644 	-75.145 	 -16.135 	 19.67 	
-769 	 1633 	 1257 	-189.035 	 -8.75 	 28.49 	
-161 	 2028 	 522 	-331.065 	 -0.945 	 22.505 	
359 	 2650 	 -569 	-486.08 	 15.82 	 27.615 	
1048 	 3101 	 -2188 	-645.75 	 37.905 	 84.63 	
1599 	 3774 	 -4291 	-788.865 	 76.125 	 186.41 	
1915 	 3856 	 -6827 	-901.46 	 132.3 	 296.695 	
1811 	 2893 	 -7899 	-968.8 	 215.67 	 392.665 	
1688 	 -837 	 -5870 	-955.29 	 301.77 	 441.98 	
1697 	 -2024 	 -2710 	-840.665 	 358.05 	 360.395 	
19 	 -3271 	 -1107 	-699.125 	 370.09 	 198.695 	
-1012 	 -2913 	 -266 	-508.725 	 315.315 	 80.605 	
-1048 	 -3103 	 -367 	-311.605 	 222.18 	 66.395 	
-1191 	 -1674 	 -586 	-91.42 	 127.96 	 134.61 	
-1398 	 -738 	 -644 	86.1 	 35.91 	 221.585 	
-1444 	 -149 	 -996 	215.635 	 -54.845 	 207.025 	
-1452 	 73 	 -1503 	295.54 	 -133.525 	 78.085 	
-1267 	 455 	 -2192 	348.705 	 -189.665 	 -69.475 	
-1006 	 628 	 -2351 	372.82 	 -223.16 	 -154.91 	
-598 	 723 	 -2412 	380.38 	 -241.115 	 -169.05 	
-333 	 563 	 -2186 	373.59 	 -245.49 	 -147.7 	
75 	 454 	 -2010 	359.415 	 -242.62 	 -133.105 	
265 	 279 	 -1767 	337.855 	 -226.38 	 -138.845 	
409 	 296 	 -1696 	314.405 	 -205.345 	 -158.48 	
358 	 242 	 -1587 	288.26 	 -178.675 	 -174.895 	
310 	 283 	 -1518 	262.255 	 -151.935 	 -177.59 	
249 	 203 	 -1447 	234.325 	 -127.33 	 -163.03 	
168 	 149 	 -1314 	207.795 	 -106.68 	 -134.715 	
53 	 -58 	 -1148 	181.51 	 -90.58 	 -99.19 	
-65 	 -205 	 -1024 	158.62 	 -79.45 	 -65.03 	
-131 	 -367 	 -912 	138.18 	 -71.47 	 -37.135 	
-195 	 -426 	 -821 	120.085 	 -64.715 	 -17.465 	
-201 	 -399 	 -871 	103.775 	 -60.865 	 -6.475 	
-243 	 -341 	 -893 	89.11 	 -55.685 	 -2.485 	
-260 	 -421 	 -851 	74.9 	 -51.065 	 -0.14 	
-234 	 -361 	 -870 	63.315 	 -46.655 	 1.855 	
-199 	 -415 	 -884 	52.955 	 -42.175 	 0.91 	
-160 	 -526 	 -841 	45.08 	 -37.485 	 -4.725 	
-123 	 -629 	 -781 	40.32 	 -33.04 	 -12.88 	
-102 	 -693 	 -730 	38.325 	 -28.63 	 -20.79 	
-86 	 -721 	 -694 	38.78 	 -24.815 	 -26.18 	
-84 	 -735 	 -671 	40.635 	 -21.56 	 -26.6 	
-101 	 -678 	 -661 	44.065 	 -19.11 	 -20.3 	
-117 	 -661 	 -649 	47.74 	 -17.395 	 -7.77 	
-141 	 -662 	 -612 	51.905 	 -16.065 	 8.575 	
-187 	 -606 	 -632 	56.595 	 -15.68 	 24.885 	
-238 	 -659 	 -610 	60.795 	 -15.435 	 37.31 	
-309 	 -802 	 -520 	65.59 	 -15.54 	 43.61 	
-322 	 -899 	 -486 	71.715 	 -16.52 	 42.245 	
-327 	 -987 	 -478 	78.435 	 -17.185 	 33.04 	
-325 	 -1041 	 -482 	85.61 	 -17.64 	 17.01 	
-335 	 -1054 	 -462 	92.925 	 -17.78 	 -3.01 	
-369 	 -1067 	 -397 	99.925 	 -17.255 	 -22.47 	
-540 	 -1103 	 -105 	107.415 	 -15.89 	 -34.65 	
-1032 	 -1187 	 586 	113.995 	 -16.03 	 -33.075 	
-1596 	 -1684 	 1714 	117.915 	 -19.39 	 -14.805 	
-1325 	 -1933 	 2670 	118.265 	 -29.155 	 8.225 	
-500 	 -1256 	 2278 	99.82 	 -35.525 	 19.355 	
-550 	 -558 	 1978 	47.005 	 -25.9 	 22.68 	
-774 	 1449 	 1580 	-34.44 	 -18.305 	 25.97 	
-691 	 1861 	 1086 	-167.685 	 -2.765 	 35.805 	
-21 	 2752 	 37 	-320.74 	 16.52 	 21.21 	
391 	 3263 	 -1192 	-497.595 	 43.155 	 19.845 	
708 	 3982 	 -2837 	-670.285 	 73.465 	 89.53 	
1053 	 4117 	 -4851 	-825.16 	 113.89 	 204.085 	
978 	 4041 	 -6852 	-938.42 	 172.235 	 293.825 	
894 	 2279 	 -7388 	-1003 	 244.685 	 341.67 	
1045 	 -776 	 -4792 	-974.89 	 307.09 	 333.515 	
638 	 -1754 	 -2214 	-864.185 	 338.135 	 248.99 	
-606 	 -3287 	 -931 	-713.825 	 322.175 	 158.83 	
-925 	 -3193 	 -314 	-511.805 	 257.775 	 106.715 	
-1175 	 -3272 	 -323 	-293.475 	 174.93 	 112.735 	
-1217 	 -1800 	 -264 	-62.685 	 84.14 	 145.705 	
-1141 	 -1296 	 -568 	119.35 	 -3.43 	 149.975 	
-933 	 -237 	 -995 	267.54 	 -85.505 	 77.28 	
-615 	 2 	 -1602 	362.39 	 -148.785 	 -23.52 	
-586 	 608 	 -2163 	431.55 	 -184.625 	 -97.23 	
-220 	 644 	 -2458 	462.035 	 -206.85 	 -126.91 	
-29 	 794 	 -2606 	472.255 	 -208.845 	 -128.345 	
210 	 571 	 -2541 	461.895 	 -202.265 	 -122.01 	
404 	 544 	 -2438 	442.82 	 -186.69 	 -129.57 	
356 	 457 	 -2322 	414.505 	 -162.96 	 -147.735 	
262 	 464 	 -2180 	382.9 	 -137.76 	 -160.825 	
112 	 512 	 -2039 	350.21 	 -113.855 	 -153.3 	
3 	 438 	 -1818 	316.365 	 -93.975 	 -121.1 	
-107 	 292 	 -1530 	282.8 	 -78.68 	 -75.635 	
-160 	 27 	 -1355 	250.705 	 -67.725 	 -39.55 	
-127 	 -163 	 -1287 	222.565 	 -58.38 	 -30.03 	
-111 	 -332 	 -1196 	196.91 	 -48.265 	 -42.455 	
-192 	 -369 	 -1089 	174.475 	 -37.03 	 -57.96 	
-213 	 -294 	 -1134 	154.91 	 -29.295 	 -62.265 	
-286 	 -318 	 -1042 	138.425 	 -21.28 	 -53.9 	
-240 	 -491 	 -896 	124.18 	 -15.365 	 -40.355 	
-196 	 -582 	 -805 	114.065 	 -9.415 	 -29.505 	
-140 	 -631 	 -762 	106.96 	 -4.41 	 -23.73 	
-141 	 -623 	 -741 	102.305 	 1.155 	 -21.105 	
-134 	 -618 	 -704 	99.015 	 5.88 	 -18.55 	
-113 	 -606 	 -674 	96.88 	 10.15 	 -14.035 	
-109 	 -604 	 -616 	95.795 	 13.895 	 -6.545 	
-109 	 -591 	 -572 	95.27 	 16.87 	 2.94 	
-134 	 -527 	 -587 	95.55 	 19.145 	 11.62 	
-141 	 -526 	 -586 	95.34 	 20.965 	 16.1 	
-171 	 -590 	 -537 	95.48 	 22.575 	 14.735 	
-197 	 -683 	 -506 	96.18 	 23.45 	 8.54 	
-238 	 -714 	 -514 	98.07 	 23.625 	 0.735 	
-261 	 -741 	 -502 	100.17 	 22.925 	 -5.285 	
-317 	 -730 	 -486 	102.935 	 21.7 	 -7.945 	
-358 	 -746 	 -483 	105.35 	 19.145 	 -8.05 	
-399 	 -786 	 -458 	108.185 	 16.345 	 -7.42 	
-390 	 -823 	 -446 	111.23 	 12.67 	 -6.86 	
-394 	 -823 	 -420 	114.625 	 9.415 	 -6.58 	
-427 	 -805 	 -432 	117.635 	 6.02 	 -6.37 	
-444 	 -782 	 -443 	120.855 	 2.52 	 -7.175 	
-477 	 -833 	 -361 	123.235 	 -0.245 	 -10.535 	
-613 	 -863 	 -117 	125.72 	 -2.485 	 -15.33 	
-967 	 -958 	 311 	127.575 	 -5.565 	 -16.345 	
-1475 	 -1258 	 1106 	127.82 	 -9.52 	 -6.895 	
-1432 	 -1584 	 2313 	123.585 	 -14.49 	 8.785 	
-1120 	 -1488 	 2722 	104.965 	 -16.275 	 12.915 	
-1014 	 -430 	 2639 	61.6 	 -10.22 	 -9.065 	
-1625 	 1233 	 2432 	-21.175 	 3.01 	 -34.895 	
-1214 	 1830 	 1735 	-147.035 	 13.93 	 -34.545 	
-421 	 2476 	 652 	-294.7 	 37.31 	 -36.505 	
282 	 2744 	 -622 	-466.725 	 62.965 	 -52.185 	
609 	 3385 	 -2069 	-637.49 	 93.765 	 -29.925 	
1171 	 3562 	 -3841 	-798.595 	 122.15 	 35.385 	
1486 	 3617 	 -5717 	-927.22 	 157.57 	 89.985 	
1450 	 3163 	 -6807 	-1012.66 	 200.55 	 124.145 	
1341 	 1033 	 -6178 	-1036.35 	 236.285 	 152.67 	
1481 	 -407 	 -3724 	-964.985 	 255.15 	 152.88 	
718 	 -2709 	 -1852 	-834.715 	 252.84 	 137.97 	
443 	 -3253 	 -803 	-637.665 	 211.855 	 144.445 	
-19 	 -3753 	 -318 	-411.18 	 154.14 	 186.235 	
-485 	 -2829 	 -188 	-165.2 	 82.145 	 201.635 	
-802 	 -1752 	 -592 	51.205 	 -2.03 	 158.305 	
-855 	 -527 	 -1136 	221.025 	 -89.635 	 60.55 	
-812 	 182 	 -1836 	336.49 	 -162.575 	 -31.92 	
-917 	 810 	 -2386 	413.245 	 -212.1 	 -76.93 	
-672 	 759 	 -2715 	447.86 	 -248.85 	 -91.35 	
-342 	 610 	 -2823 	458.465 	 -265.79 	 -106.435 	
-10 	 259 	 -2681 	452.06 	 -267.4 	 -130.305 	
223 	 165 	 -2530 	440.79 	 -255.605 	 -156.87 	
318 	 75 	 -2295 	425.215 	 -235.305 	 -169.995 	
396 	 73 	 -2106 	407.89 	 -211.995 	 -163.94 	
241 	 43 	 -1867 	388.71 	 -186.34 	 -143.675 	
73 	 38 	 -1659 	367.885 	 -165.095 	 -125.79 	
88 	 -140 	 -1617 	346.08 	 -143.92 	 -127.085 	
266 	 -238 	 -1559 	325.465 	 -121.24 	 -150.465 	
184 	 -335 	 -1426 	305.2 	 -96.215 	 -176.4 	
154 	 -234 	 -1294 	287.245 	 -73.71 	 -183.295 	
13 	 -222 	 -1121 	268.695 	 -52.85 	 -159.46 	
14 	 -270 	 -975 	251.16 	 -37.555 	 -112.525 	
12 	 -337 	 -856 	234.92 	 -25.55 	 -59.115 	
50 	 -439 	 -767 	220.36 	 -16.065 	 -15.855 	
36 	 -580 	 -644 	207.41 	 -6.755 	 8.47 	
26 	 -659 	 -555 	196.49 	 1.925 	 11.165 	
18 	 -737 	 -493 	187.285 	 10.745 	 -5.46 	
52 	 -782 	 -456 	179.235 	 19.915 	 -34.58 	
74 	 -765 	 -426 	172.27 	 29.715 	 -66.78 	
89 	 -725 	 -374 	165.62 	 39.445 	 -91.49 	
88 	 -666 	 -335 	159.04 	 48.545 	 -101.22 	
94 	 -622 	 -291 	152.67 	 56.28 	 -94.5 	
86 	 -602 	 -240 	146.125 	 62.615 	 -74.9 	
82 	 -645 	 -197 	139.72 	 67.305 	 -48.545 	
77 	 -698 	 -155 	133.91 	 70.91 	 -21.42 	
72 	 -792 	 -81 	128.415 	 74.06 	 2.03 	
63 	 -882 	 -23 	123.515 	 76.475 	 17.71 	
54 	 -902 	 31 	118.895 	 78.75 	 22.05 	
18 	 -852 	 82 	112.665 	 81.55 	 13.125 	
0 	 -832 	 101 	103.425 	 84.105 	 -5.005 	
-62 	 -824 	 123 	92.995 	 86.31 	 -26.565 	
-89 	 -443 	 354 	80.815 	 87.815 	 -47.11 	
-402 	 -489 	 972 	58.52 	 88.235 	 -53.795 	
-563 	 -627 	 1701 	32.165 	 79.31 	 -31.01 	
-808 	 -586 	 2310 	-3.64 	 64.75 	 29.505 	
-841 	 -1 	 2472 	-58.205 	 42.595 	 113.085 	
-1163 	 640 	 2253 	-137.62 	 20.125 	 183.715 	
-1099 	 1266 	 1853 	-242.83 	 -1.505 	 191.905 	
-963 	 1621 	 1256 	-376.95 	 -11.13 	 133.77 	
-831 	 2222 	 275 	-523.985 	 -24.115 	 89.845 	
-700 	 2558 	 -921 	-670.425 	 -34.79 	 134.4 	
-558 	 2612 	 -2169 	-808.115 	 -30.38 	 209.895 	
-504 	 2613 	 -3549 	-928.375 	 -11.375 	 232.995 	
-689 	 2745 	 -5078 	-1015.7 	 13.93 	 212.765 	
-774 	 1391 	 -5571 	-1060.15 	 39.27 	 195.09 	
-519 	 92 	 -4003 	-1030.16 	 55.02 	 168.595 	
28 	 -171 	 -3202 	-950.985 	 50.19 	 109.655 	
-326 	 -678 	 -2068 	-815.675 	 40.46 	 43.505 	
233 	 -1377 	 -1333 	-646.555 	 1.19 	 -31.465 	
320 	 -1606 	 -1015 	-439.215 	 -31.255 	 -98.665 	
553 	 -1280 	 -971 	-217.175 	 -64.365 	 -101.675 	
724 	 -990 	 -1209 	-2.87 	 -80.885 	 -37.765 	
601 	 -753 	 -1457 	184.415 	 -89.04 	 17.99 	
663 	 -442 	 -1784 	332.185 	 -94.675 	 28.42 	
317 	 146 	 -2087 	441.35 	 -90.44 	 14.805 	
293 	 455 	 -2528 	508.305 	 -87.99 	 -2.065 	
-136 	 788 	 -2522 	539.77 	 -75.355 	 -13.475 	
-181 	 581 	 -2486 	538.72 	 -67.655 	 -23.94 	
-334 	 534 	 -2335 	521.185 	 -53.97 	 -46.69 	
-345 	 481 	 -2242 	492.065 	 -42.07 	 -73.85 	
-487 	 594 	 -1902 	454.335 	 -26.845 	 -87.325 	
-687 	 430 	 -1570 	408.52 	 -14.805 	 -78.89 	
-595 	 362 	 -1499 	363.545 	 -9.8 	 -57.925 	
-602 	 192 	 -1276 	319.41 	 -4.445 	 -27.02 	
-462 	 29 	 -1107 	274.575 	 -3.115 	 3.745 	
-387 	 -198 	 -1031 	232.68 	 -0.595 	 18.795 	
-346 	 -363 	 -904 	193.795 	 2.24 	 10.43 	
-417 	 -510 	 -767 	158.165 	 5.845 	 -10.395 	
-463 	 -524 	 -720 	126.56 	 7.77 	 -28.735 	
-511 	 -469 	 -726 	100.135 	 7.665 	 -34.545 	
-513 	 -495 	 -693 	76.23 	 6.09 	 -28 	
-502 	 -522 	 -659 	57.4 	 4.165 	 -17.15 	
-448 	 -558 	 -650 	41.58 	 1.645 	 -8.715 	
-399 	 -523 	 -681 	30.135 	 -0.245 	 -6.44 	
-377 	 -572 	 -656 	20.825 	 -0.805 	 -10.325 	
-324 	 -596 	 -631 	14.98 	 -1.12 	 -18.55 	
-286 	 -597 	 -619 	11.445 	 -0.91 	 -28.63 	
-263 	 -628 	 -588 	10.36 	 -0.035 	 -40.04 	
-282 	 -692 	 -534 	11.165 	 1.33 	 -54.845 	
-264 	 -722 	 -497 	13.72 	 1.82 	 -70.805 	
-279 	 -773 	 -471 	17.43 	 2.625 	 -73.57 	
-243 	 -691 	 -514 	23.345 	 2.695 	 -53.41 	
-174 	 -586 	 -579 	28.63 	 2.765 	 -18.76 	
-133 	 -535 	 -658 	32.41 	 3.885 	 13.055 	
-121 	 -572 	 -689 	35.175 	 6.02 	 33.74 	
-148 	 -595 	 -664 	38.045 	 9.1 	 43.75 	
-192 	 -606 	 -658 	40.915 	 11.62 	 46.34 	
-239 	 -632 	 -654 	43.995 	 14.035 	 43.61 	
-265 	 -715 	 -625 	47.46 	 15.925 	 36.54 	
-269 	 -788 	 -590 	51.765 	 17.57 	 26.145 	
-273 	 -841 	 -568 	56.7 	 18.935 	 14.21 	
-289 	 -890 	 -555 	62.195 	 20.125 	 3.465 	
-317 	 -914 	 -554 	68.215 	 20.79 	 -4.585 	
-332 	 -909 	 -552 	74.235 	 21.14 	 -10.08 	
-380 	 -951 	 -500 	79.835 	 21.77 	 -12.355 	
-414 	 -957 	 -459 	85.575 	 21.21 	 -11.515 	
-529 	 -940 	 -316 	90.895 	 20.79 	 -9.52 	
-814 	 -1105 	 23 	94.535 	 20.125 	 -7.735 	
-1142 	 -1398 	 619 	97.615 	 16.695 	 -8.54 	
-1211 	 -1581 	 1365 	96.46 	 10.78 	 -18.025 	
-905 	 -1639 	 1942 	82.88 	 5.88 	 -34.965 	
-1076 	 -745 	 2357 	46.865 	 5.39 	 -36.47 	
-1386 	 713 	 1909 	-26.18 	 1.12 	 17.78 	
-1432 	 2147 	 1222 	-137.655 	 -0.455 	 113.89 	
-797 	 2415 	 357 	-286.405 	 10.5 	 153.265 	
-466 	 2692 	 -537 	-456.19 	 36.75 	 95.935 	
-365 	 3527 	 -1663 	-629.335 	 60.795 	 60.305 	
-121 	 4023 	 -3349 	-793.415 	 82.6 	 118.545 	
338 	 4093 	 -5453 	-928.34 	 107.135 	 175 	
607 	 3475 	 -6749 	-1022.25 	 139.405 	 171.535 	
768 	 869 	 -5619 	-1048.11 	 164.01 	 138.32 	
1080 	 13 	 -3349 	-979.44 	 155.995 	 78.12 	
60 	 -1533 	 -1739 	-869.4 	 124.95 	 28.63 	
-153 	 -2629 	 -957 	-705.81 	 59.325 	 -18.165 	
-551 	 -3149 	 -680 	-502.11 	 -20.09 	 -54.565 	
-627 	 -2066 	 -389 	-276.5 	 -99.785 	 -31.99 	
-811 	 -1631 	 -524 	-81.27 	 -163.1 	 2.87 	
-440 	 -850 	 -865 	85.925 	 -225.575 	 -52.045 	
-227 	 -61 	 -1095 	212.1 	 -262.99 	 -145.53 	
-125 	 271 	 -1450 	299.285 	 -279.51 	 -193.48 	
-257 	 708 	 -1772 	357.07 	 -280.385 	 -182.945 	
-233 	 1000 	 -1996 	382.585 	 -277.235 	 -143.745 	
-343 	 1136 	 -2018 	381.57 	 -267.085 	 -113.68 	
-474 	 1109 	 -1966 	360.325 	 -253.68 	 -111.335 	
-526 	 1038 	 -1901 	328.23 	 -239.4 	 -133.735 	
-838 	 1044 	 -1702 	291.76 	 -223.475 	 -154.665 	
-1002 	 1014 	 -1448 	252.42 	 -212.66 	 -146.65 	
-1123 	 930 	 -1205 	212.66 	 -206.115 	 -105.315 	
-1113 	 746 	 -1038 	174.58 	 -205.24 	 -49.28 	
-1003 	 699 	 -824 	138.25 	 -204.435 	 -2.205 	
-1078 	 218 	 -551 	106.435 	 -201.95 	 17.01 	
-909 	 180 	 -637 	76.93 	 -201.425 	 -5.11 	
-898 	 175 	 -674 	53.55 	 -196.455 	 -51.415 	
-999 	 248 	 -596 	34.79 	 -190.12 	 -85.785 	
-1062 	 265 	 -503 	21.245 	 -186.445 	 -93.345 	
-990 	 112 	 -421 	9.8 	 -185.115 	 -84.77 	
-942 	 67 	 -371 	3.955 	 -183.015 	 -74.62 	
-879 	 -56 	 -287 	-1.225 	 -181.125 	 -67.375 	
-840 	 -21 	 -287 	-1.47 	 -178.605 	 -60.795 	
-786 	 -150 	 -212 	-2.24 	 -174.475 	 -51.8 	
-773 	 -91 	 -233 	-0.07 	 -169.785 	 -44.03 	
-746 	 -113 	 -313 	1.995 	 -164.675 	 -41.3 	
-820 	 -57 	 -281 	6.3 	 -157.115 	 -46.095 	
-829 	 -208 	 -204 	10.01 	 -150.185 	 -58.205 	
-880 	 -236 	 -182 	17.15 	 -142.8 	 -75.775 	
-896 	 -319 	 -166 	25.2 	 -136.01 	 -93.24 	
-928 	 -307 	 -168 	35.28 	 -128.905 	 -106.19 	
-916 	 -311 	 -164 	44.87 	 -122.535 	 -112.245 	
-861 	 -298 	 -166 	54.425 	 -115.08 	 -111.755 	
-864 	 -340 	 -177 	62.44 	 -106.925 	 -103.705 	
-821 	 -313 	 -203 	69.685 	 -98.665 	 -90.23 	
-861 	 -300 	 -198 	74.795 	 -88.48 	 -75.845 	
-831 	 -302 	 -180 	77.735 	 -78.155 	 -67.095 	
-804 	 -359 	 -197 	78.68 	 -66.745 	 -68.32 	
-791 	 -390 	 -217 	78.085 	 -54.285 	 -78.05 	
-813 	 -360 	 -199 	77.455 	 -41.405 	 -89.355 	
-798 	 -424 	 -135 	74.655 	 -28.735 	 -96.74 	
-776 	 -424 	 -58 	72.415 	 -14.665 	 -97.3 	
-722 	 -632 	 54 	67.97 	 -2.03 	 -93.17 	
-561 	 -815 	 365 	66.08 	 14.945 	 -87.955 	
-258 	 -1565 	 852 	61.285 	 35.21 	 -92.435 	
560 	 -2127 	 1241 	62.16 	 60.725 	 -119.35 	
1166 	 -2777 	 1943 	60.095 	 100.065 	 -153.475 	
1647 	 -2325 	 2351 	50.855 	 144.76 	 -154.735 	
1402 	 -1163 	 2608 	22.05 	 192.64 	 -73.78 	
1087 	 256 	 2371 	-31.115 	 233.03 	 90.86 	
1010 	 1113 	 1511 	-115.605 	 275.135 	 266.91 	
789 	 1992 	 338 	-220.255 	 327.425 	 364.105 	
70 	 3330 	 -1087 	-338.24 	 385.21 	 378.875 	
-899 	 4544 	 -2699 	-466.305 	 436.1 	 371.385 	
-1494 	 5211 	 -4273 	-584.605 	 482.545 	 358.855 	
-2244 	 5376 	 -5409 	-693.98 	 516.355 	 329.385 	
-1667 	 4276 	 -6027 	-774.795 	 526.12 	 283.71 	
-1659 	 756 	 -4143 	-793.625 	 528.01 	 204.435 	
-1389 	 -67 	 -2034 	-727.79 	 481.88 	 106.75 	
-1603 	 -1657 	 -848 	-635.495 	 413.14 	 91.175 	
-1363 	 -3158 	 -656 	-478.24 	 326.025 	 120.4 	
-1248 	 -3085 	 -119 	-283.01 	 233.555 	 145.6 	
-1323 	 -2578 	 -43 	-89.495 	 148.33 	 167.475 	
-892 	 -1864 	 -379 	84.07 	 60.55 	 134.435 	
-390 	 -794 	 -872 	227.5 	 -14.105 	 41.405 	
-193 	 25 	 -1232 	327.565 	 -62.965 	 -46.06 	
9 	 354 	 -1794 	389.515 	 -91.525 	 -99.365 	
-53 	 785 	 -2001 	423.675 	 -100.45 	 -118.44 	
65 	 975 	 -2176 	428.855 	 -102.06 	 -113.785 	
7 	 1138 	 -2294 	416.045 	 -95.69 	 -105.105 	
34 	 1203 	 -2277 	387.45 	 -87.185 	 -101.64 	
-185 	 1163 	 -2037 	348.145 	 -74.235 	 -94.29 	
-321 	 1110 	 -1755 	302.68 	 -64.435 	 -75.74 	
-543 	 1011 	 -1457 	253.085 	 -55.405 	 -50.54 	
-549 	 805 	 -1385 	202.895 	 -50.54 	 -35.595 	
-586 	 737 	 -1283 	156.38 	 -44.24 	 -37.135 	
-633 	 544 	 -1116 	111.16 	 -37.17 	 -45.535 	
-607 	 408 	 -1047 	71.925 	 -31.605 	 -51.765 	
-597 	 313 	 -993 	39.13 	 -25.865 	 -48.65 	
-574 	 243 	 -924 	12.565 	 -20.3 	 -35.07 	
-515 	 46 	 -890 	-9.065 	 -14.84 	 -16.975 	
-446 	 -10 	 -887 	-23.485 	 -8.68 	 -0.42 	
-451 	 -42 	 -901 	-33.67 	 -1.155 	 14.455 	
-472 	 -65 	 -892 	-38.885 	 6.755 	 27.09 	
-469 	 -185 	 -843 	-40.845 	 14.77 	 34.79 	
-440 	 -231 	 -842 	-37.695 	 22.82 	 35.595 	
-411 	 -305 	 -805 	-31.01 	 31.535 	 33.6 	
-437 	 -301 	 -756 	-20.93 	 40.32 	 33.11 	
-418 	 -288 	 -774 	-8.785 	 47.495 	 36.05 	
-441 	 -236 	 -803 	5.74 	 54.95 	 43.085 	
-438 	 -227 	 -804 	21.105 	 61.39 	 53.27 	
-445 	 -229 	 -805 	37.065 	 67.375 	 62.16 	
-442 	 -239 	 -833 	53.445 	 72.38 	 65.1 	
-446 	 -225 	 -844 	69.685 	 77.105 	 60.095 	
-431 	 -222 	 -843 	84.875 	 80.92 	 48.72 	
-422 	 -201 	 -870 	99.015 	 84.455 	 34.79 	
-412 	 -152 	 -908 	111.72 	 87.395 	 22.575 	
-407 	 -103 	 -948 	122.71 	 89.565 	 14.315 	
-401 	 -99 	 -976 	131.74 	 91.14 	 8.995 	
-382 	 -75 	 -1003 	139.195 	 92.225 	 4.305 	
-355 	 -76 	 -1033 	144.795 	 92.715 	 -1.75 	
-367 	 -121 	 -1030 	149.135 	 93.24 	 -9.275 	
-368 	 -161 	 -1005 	152.425 	 92.82 	 -17.29 	
-369 	 -169 	 -1010 	155.015 	 91.77 	 -25.585 	
-375 	 -234 	 -1007 	156.8 	 90.09 	 -34.23 	
-367 	 -300 	 -988 	158.655 	 87.745 	 -43.085 	
-334 	 -343 	 -974 	160.44 	 84.91 	 -51.8 	
-325 	 -407 	 -948 	162.225 	 81.935 	 -59.185 	
-328 	 -478 	 -915 	164.535 	 78.365 	 -62.895 	
-351 	 -508 	 -869 	167.51 	 73.85 	 -61.215 	
-355 	 -563 	 -825 	170.66 	 68.39 	 -54.53 	
-383 	 -634 	 -769 	174.335 	 62.195 	 -44.38 	
-495 	 -771 	 -633 	178.71 	 55.195 	 -31.22 	
-845 	 -1015 	 -301 	184.275 	 46.235 	 -13.79 	
-1525 	 -1651 	 310 	191.065 	 34.125 	 11.34 	
-2500 	 -2651 	 1456 	200.375 	 14.35 	 41.475 	
-3067 	 -2868 	 2963 	210 	 -15.295 	 60.865 	
-2564 	 -1652 	 3123 	194.915 	 -43.82 	 53.83 	
-2300 	 170 	 1910 	127.015 	 -50.82 	 -2.345 	
-2179 	 2000 	 947 	20.825 	 -46.41 	 -113.19 	
-1699 	 2987 	 530 	-131.075 	 -22.82 	 -218.96 	
-446 	 3887 	 -442 	-309.33 	 -3.92 	 -259.49 	
456 	 4268 	 -1611 	-502.95 	 16.345 	 -209.895 	
1133 	 4793 	 -3370 	-685.055 	 37.31 	 -109.165 	
1981 	 4592 	 -5108 	-844.375 	 60.76 	 -35.735 	
2344 	 3982 	 -6306 	-961.345 	 94.465 	 8.89 	
2560 	 1857 	 -5932 	-1013.04 	 128.625 	 74.06 	
2598 	 -132 	 -3975 	-966.805 	 151.55 	 132.125 	
1962 	 -1860 	 -2149 	-851.585 	 162.085 	 159.775 	
1159 	 -3771 	 -1236 	-670.74 	 140.035 	 165.655 	
738 	 -3993 	 -311 	-432.775 	 82.425 	 147.735 	
-27 	 -3491 	 -65 	-189.91 	 14.84 	 116.9 	
-325 	 -2260 	 -494 	39.515 	 -70.84 	 66.885 	
-498 	 -900 	 -1071 	230.65 	 -153.86 	 10.92 	
-427 	 80 	 -1761 	367.43 	 -221.165 	 -30.695 	
-546 	 759 	 -2412 	452.97 	 -261.555 	 -64.47 	
-349 	 1131 	 -2746 	490.98 	 -282.17 	 -100.87 	
-197 	 1242 	 -2840 	495.075 	 -278.46 	 -130.34 	
-45 	 1207 	 -2713 	477.75 	 -260.68 	 -143.43 	
7 	 1178 	 -2459 	447.965 	 -233.205 	 -140.035 	
-28 	 1135 	 -2037 	409.43 	 -200.585 	 -124.075 	
106 	 1053 	 -1753 	364.595 	 -167.86 	 -108.85 	
104 	 889 	 -1682 	317.205 	 -131.46 	 -106.225 	
92 	 694 	 -1566 	270.935 	 -95.655 	 -110.39 	
74 	 604 	 -1364 	229.88 	 -61.32 	 -104.965 	
-26 	 302 	 -1116 	190.47 	 -31.15 	 -82.39 	
-56 	 122 	 -1002 	158.655 	 -7.035 	 -51.17 	
-173 	 -111 	 -874 	132.51 	 12.53 	 -21.455 	
-272 	 -205 	 -787 	113.33 	 26.565 	 0.35 	
-417 	 -301 	 -696 	98.105 	 36.925 	 15.26 	
-464 	 -305 	 -707 	87.36 	 42.42 	 23.24 	
-517 	 -361 	 -687 	79.24 	 45.99 	 24.71 	
-499 	 -406 	 -679 	73.955 	 47.18 	 19.425 	
-500 	 -506 	 -648 	70.665 	 47.67 	 9.45 	
-449 	 -563 	 -621 	69.895 	 46.69 	 -2.765 	
-422 	 -626 	 -604 	70.63 	 45.22 	 -14 	
-386 	 -643 	 -604 	73.29 	 42.77 	 -21.875 	
-371 	 -653 	 -595 	76.58 	 40.11 	 -24.22 	
-346 	 -652 	 -606 	80.36 	 36.61 	 -21.105 	
-311 	 -652 	 -612 	84.35 	 32.9 	 -14 	
-276 	 -597 	 -646 	88.165 	 29.085 	 -6.125 	
-282 	 -555 	 -685 	91.455 	 25.69 	 -0.525 	
-289 	 -582 	 -673 	93.905 	 22.33 	 1.085 	
-311 	 -626 	 -639 	96.355 	 19.145 	 -1.82 	
-339 	 -689 	 -616 	99.085 	 15.68 	 -9.03 	
-348 	 -752 	 -591 	102.235 	 12.11 	 -18.76 	
-378 	 -799 	 -585 	105.875 	 8.61 	 -27.895 	
-410 	 -835 	 -584 	109.655 	 4.725 	 -33.11 	
-438 	 -805 	 -593 	113.75 	 0.28 	 -34.02 	
-459 	 -790 	 -607 	116.935 	 -4.41 	 -32.83 	
-504 	 -777 	 -610 	119.7 	 -9.275 	 -31.605 	
-538 	 -758 	 -602 	121.87 	 -14.56 	 -31.045 	
-590 	 -718 	 -518 	123.83 	 -19.95 	 -31.36 	
-845 	 -687 	 -232 	124.46 	 -25.2 	 -29.785 	
-1406 	 -973 	 254 	123.2 	 -32.375 	 -19.425 	
-2022 	 -1309 	 1186 	120.33 	 -44.485 	 0.7 	
-1729 	 -1718 	 1953 	107.415 	 -58.24 	 20.79 	
-1385 	 -912 	 1927 	73.115 	 -61.74 	 8.4 	
-1150 	 -184 	 1444 	2.45 	 -55.86 	 -51.45 	
-1334 	 1652 	 1035 	-94.395 	 -31.57 	 -113.4 	
-463 	 2396 	 268 	-232.785 	 -9.73 	 -117.81 	
611 	 2650 	 -881 	-388.78 	 29.33 	 -81.27 	
1462 	 2949 	 -2263 	-549.465 	 75.565 	 -24.675 	
1769 	 2991 	 -3730 	-693.35 	 135.065 	 64.855 	
1849 	 2678 	 -4981 	-803.81 	 201.53 	 153.475 	
1862 	 1510 	 -5463 	-867.475 	 269.185 	 207.445 	
1614 	 -563 	 -4364 	-859.46 	 327.495 	 218.225 	
1305 	 -1153 	 -2790 	-774.725 	 350.91 	 165.515 	
314 	 -2272 	 -1389 	-647.325 	 335.685 	 96.845 	
-191 	 -2178 	 -485 	-462.665 	 272.09 	 66.5 	
-238 	 -2411 	 -334 	-263.97 	 187.25 	 84.63 	
-616 	 -1575 	 -408 	-49.245 	 100.1 	 106.19 	
-556 	 -792 	 -830 	133.77 	 4.305 	 89.005 	
-643 	 56 	 -1426 	278.95 	 -79.38 	 28.875 	
-685 	 375 	 -2064 	377.965 	 -146.58 	 -34.965 	
-458 	 825 	 -2582 	442.295 	 -193.445 	 -77.175 	
-75 	 854 	 -2587 	467.67 	 -218.89 	 -85.155 	
206 	 937 	 -2375 	469.84 	 -227.255 	 -64.715 	
253 	 638 	 -1981 	450.835 	 -224.14 	 -38.71 	
487 	 407 	 -1829 	424.2 	 -211.925 	 -47.81 	
511 	 217 	 -1711 	392.175 	 -187.81 	 -99.68 	
397 	 299 	 -1642 	360.045 	 -157.43 	 -151.9 	
114 	 389 	 -1506 	326.585 	 -126.945 	 -158.2 	
-67 	 432 	 -1348 	292.46 	 -102.865 	 -115.885 	
-141 	 304 	 -1197 	259.175 	 -86.485 	 -50.575 	
-147 	 91 	 -1031 	227.85 	 -75.355 	 8.26 	
-252 	 -89 	 -885 	200.41 	 -66.85 	 47.67 	
-415 	 -179 	 -732 	175.875 	 -61.25 	 67.025 	
-506 	 -287 	 -700 	153.475 	 -58.03 	 64.505 	
-503 	 -335 	 -731 	134.155 	 -54.845 	 39.62 	
-466 	 -431 	 -711 	117.075 	 -50.96 	 4.9 	
-483 	 -477 	 -635 	103.425 	 -46.41 	 -22.19 	
-451 	 -531 	 -585 	92.295 	 -43.155 	 -33.04 	
-400 	 -549 	 -548 	84.385 	 -39.9 	 -32.165 	
-323 	 -612 	 -507 	78.225 	 -36.435 	 -26.11 	
-221 	 -648 	 -459 	74.2 	 -32.655 	 -18.375 	
-169 	 -682 	 -422 	71.26 	 -27.895 	 -9.135 	
-138 	 -708 	 -403 	69.615 	 -23.555 	 2.03 	
-136 	 -714 	 -385 	68.53 	 -19.145 	 13.37 	
-141 	 -709 	 -377 	67.83 	 -15.61 	 22.015 	
-179 	 -694 	 -381 	67.235 	 -12.355 	 26.88 	
-221 	 -697 	 -384 	66.815 	 -10.185 	 28.315 	
-254 	 -762 	 -365 	66.605 	 -8.89 	 26.915 	
-281 	 -815 	 -347 	67.41 	 -8.61 	 24.395 	
-315 	 -859 	 -342 	68.845 	 -8.96 	 22.785 	
-350 	 -872 	 -342 	71.05 	 -10.29 	 23.135 	
-367 	 -892 	 -343 	73.5 	 -12.355 	 25.27 	
-373 	 -879 	 -347 	76.23 	 -14.945 	 28.595 	
-356 	 -871 	 -346 	78.575 	 -17.22 	 32.34 	
-366 	 -858 	 -341 	80.605 	 -19.075 	 35.28 	
-362 	 -852 	 -374 	82.39 	 -21.07 	 34.895 	
-354 	 -842 	 -379 	83.79 	 -21.84 	 27.02 	
-341 	 -818 	 -288 	84.84 	 -21.63 	 10.15 	
-546 	 -881 	 -28 	84.84 	 -20.37 	 -10.15 	
-933 	 -993 	 442 	84.805 	 -21.175 	 -24.605 	
-1477 	 -1358 	 1434 	81.55 	 -22.225 	 -24.85 	
-1522 	 -1677 	 2329 	73.29 	 -28.105 	 -14.735 	
-1133 	 -1180 	 2526 	47.425 	 -29.26 	 -12.845 	
-1241 	 -258 	 2279 	-6.895 	 -20.86 	 -29.295 	
-1264 	 1123 	 1677 	-93.03 	 -10.5 	 -58.555 	
-769 	 1756 	 1051 	-213.255 	 7.56 	 -85.54 	
-147 	 1955 	 246 	-355.845 	 28.91 	 -102.48 	
465 	 2632 	 -937 	-506.8 	 47.81 	 -79.695 	
740 	 2755 	 -2307 	-657.825 	 74.095 	 0.875 	
1199 	 2971 	 -4162 	-784.735 	 103.145 	 88.445 	
1435 	 2822 	 -5694 	-877.065 	 146.125 	 143.115 	
1543 	 1352 	 -5985 	-924.77 	 193.795 	 175.035 	
1671 	 -540 	 -4476 	-892.255 	 233.065 	 195.755 	
1431 	 -1441 	 -2906 	-790.615 	 257.075 	 207.865 	
719 	 -2413 	 -1496 	-631.4 	 257.495 	 231.735 	
377 	 -3142 	 -757 	-428.68 	 223.895 	 246.05 	
-18 	 -2589 	 -435 	-202.475 	 172.445 	 226.45 	
-249 	 -1837 	 -685 	5.845 	 101.78 	 194.32 	
-501 	 -691 	 -1120 	186.62 	 25.76 	 158.76 	
-731 	 -233 	 -1682 	314.615 	 -47.285 	 101.08 	
-806 	 231 	 -2381 	402.395 	 -106.19 	 16.345 	
-718 	 553 	 -2680 	445.55 	 -143.78 	 -56.805 	
-517 	 719 	 -2736 	456.995 	 -164.15 	 -87.605 	
-285 	 562 	 -2501 	445.585 	 -171.71 	 -82.425 	
-95 	 569 	 -2062 	422.065 	 -169.26 	 -64.19 	
55 	 440 	 -1671 	386.05 	 -159.005 	 -51.8 	
177 	 402 	 -1523 	346.675 	 -143.43 	 -54.285 	
156 	 368 	 -1412 	306.005 	 -123.585 	 -58.835 	
161 	 337 	 -1239 	266.56 	 -102.935 	 -47.6 	
88 	 112 	 -1051 	228.095 	 -83.58 	 -17.815 	
82 	 -42 	 -948 	194.95 	 -68.285 	 13.51 	
28 	 -244 	 -846 	166.25 	 -54.215 	 31.325 	
-51 	 -336 	 -782 	142.73 	 -42.175 	 31.815 	
-80 	 -413 	 -731 	123.27 	 -32.34 	 23.695 	
-164 	 -416 	 -674 	107.835 	 -23.31 	 15.855 	
-226 	 -379 	 -698 	95.06 	 -17.255 	 11.62 	
-248 	 -374 	 -736 	84.56 	 -13.02 	 12.145 	
-271 	 -428 	 -721 	76.405 	 -9.87 	 17.36 	
-264 	 -496 	 -693 	70.21 	 -8.505 	 23.905 	
-242 	 -538 	 -674 	66.15 	 -7.945 	 27.72 	
-222 	 -615 	 -652 	63.175 	 -7.84 	 26.95 	
-177 	 -645 	 -651 	61.95 	 -8.05 	 21.56 	
-149 	 -640 	 -663 	61.39 	 -7.875 	 12.495 	
-153 	 -632 	 -656 	61.39 	 -7.49 	 0.98 	
-176 	 -647 	 -618 	61.495 	 -6.965 	 -10.36 	
-203 	 -664 	 -584 	62.37 	 -7.21 	 -17.99 	
-238 	 -700 	 -545 	63.875 	 -7.875 	 -18.48 	
-254 	 -681 	 -536 	66.22 	 -9.765 	 -11.725 	
-286 	 -690 	 -515 	68.53 	 -11.655 	 -0.385 	
-292 	 -730 	 -502 	70.875 	 -14.245 	 10.395 	
-294 	 -780 	 -492 	73.185 	 -16.45 	 16.415 	
-284 	 -828 	 -498 	75.425 	 -18.725 	 15.715 	
-277 	 -840 	 -506 	77.945 	 -20.51 	 9.765 	
-284 	 -827 	 -497 	80.08 	 -22.015 	 2.275 	
-308 	 -778 	 -498 	82.005 	 -23.625 	 -4.9 	
-342 	 -765 	 -479 	83.3 	 -25.41 	 -11.48 	
-365 	 -786 	 -420 	84.49 	 -27.37 	 -17.08 	
-413 	 -710 	 -271 	85.33 	 -29.505 	 -20.93 	
-562 	 -783 	 -93 	84.21 	 -32.13 	 -19.53 	
-780 	 -797 	 202 	83.79 	 -36.75 	 -10.78 	
-1231 	 -865 	 791 	79.765 	 -42.7 	 2.485 	
-1290 	 -1298 	 1593 	69.58 	 -51.695 	 10.92 	
-1118 	 -1542 	 2212 	52.325 	 -60.515 	 2.415 	
-1038 	 -1149 	 2521 	18.795 	 -64.82 	 -17.85 	
-1313 	 434 	 2298 	-41.37 	 -68.145 	 -23.24 	
-1307 	 1544 	 1586 	-140.735 	 -71.855 	 2.275 	
-885 	 2185 	 797 	-265.72 	 -69.685 	 28.07 	
-359 	 2280 	 -57 	-416.815 	 -60.725 	 29.785 	
-346 	 2907 	 -1099 	-571.13 	 -45.675 	 50.995 	
-207 	 3107 	 -2472 	-723.66 	 -28.385 	 114.73 	
-87 	 3233 	 -4054 	-855.015 	 -3.115 	 165.515 	
-26 	 3274 	 -5530 	-956.655 	 27.93 	 182.07 	
-70 	 2088 	 -5996 	-1013.53 	 63.7 	 192.815 	
127 	 240 	 -4595 	-995.785 	 87.045 	 183.4 	
294 	 -320 	 -3151 	-912.66 	 94.325 	 124.215 	
-280 	 -1402 	 -1785 	-777.91 	 83.16 	 48.055 	
82 	 -2252 	 -1006 	-594.195 	 36.26 	 -21.63 	
-10 	 -2474 	 -677 	-378.665 	 -5.915 	 -59.5 	
22 	 -1619 	 -723 	-149.205 	 -47.635 	 -42.525 	
93 	 -804 	 -1026 	55.475 	 -77.42 	 -5.95 	
122 	 1 	 -1495 	223.965 	 -100.38 	 -7.455 	
142 	 477 	 -1913 	344.96 	 -111.405 	 -34.58 	
-21 	 713 	 -2280 	423.5 	 -108.22 	 -62.86 	
94 	 923 	 -2451 	463.925 	 -99.47 	 -89.81 	
-30 	 1090 	 -2436 	473.9 	 -79.485 	 -109.235 	
-126 	 1068 	 -2283 	461.44 	 -58.59 	 -113.54 	
-310 	 945 	 -2018 	435.155 	 -37.59 	 -100.135 	
-444 	 837 	 -1752 	401.765 	 -21.455 	 -73.36 	
-521 	 586 	 -1539 	363.545 	 -9.415 	 -43.435 	
-524 	 442 	 -1381 	326.41 	 -0.665 	 -22.575 	
-595 	 374 	 -1211 	288.715 	 6.895 	 -13.79 	
-759 	 309 	 -1036 	252.455 	 12.495 	 -10.92 	
-755 	 298 	 -1044 	218.715 	 15.54 	 -14.98 	
-693 	 178 	 -1060 	186.515 	 19.005 	 -26.565 	
-638 	 168 	 -1066 	158.025 	 21.98 	 -40.915 	
-671 	 56 	 -994 	131.845 	 24.71 	 -48.125 	
-620 	 9 	 -961 	109.935 	 25.2 	 -46.13 	
-624 	 -91 	 -942 	91.595 	 25.06 	 -39.48 	
-567 	 -172 	 -924 	77.385 	 23.38 	 -32.585 	
-534 	 -283 	 -874 	66.5 	 22.05 	 -24.605 	
-452 	 -297 	 -874 	59.29 	 19.775 	 -16.1 	
-420 	 -351 	 -847 	54.46 	 18.62 	 -9.66 	
-366 	 -412 	 -789 	51.905 	 17.5 	 -8.575 	
-335 	 -452 	 -732 	51.38 	 17.01 	 -13.615 	
-319 	 -492 	 -671 	52.465 	 16.765 	 -23.205 	
-315 	 -484 	 -623 	55.02 	 16.45 	 -33.67 	
-320 	 -481 	 -592 	58.45 	 15.925 	 -40.775 	
-339 	 -498 	 -555 	62.86 	 14.98 	 -41.825 	
-351 	 -521 	 -522 	68.18 	 13.335 	 -36.54 	
-362 	 -565 	 -492 	74.06 	 11.445 	 -26.67 	
-362 	 -607 	 -493 	80.465 	 8.96 	 -14.63 	
-344 	 -634 	 -517 	87.22 	 6.335 	 -3.115 	
-342 	 -681 	 -527 	93.835 	 3.92 	 4.935 	
-349 	 -741 	 -536 	100.45 	 1.715 	 7.56 	
-363 	 -774 	 -532 	106.925 	 -0.49 	 3.325 	
-372 	 -808 	 -524 	113.225 	 -2.52 	 -7.175 	
-394 	 -833 	 -527 	119.315 	 -4.655 	 -21.175 	
-419 	 -838 	 -524 	125.51 	 -6.79 	 -35.35 	
-481 	 -849 	 -470 	131.53 	 -9.065 	 -46.165 	
-670 	 -911 	 -273 	137.76 	 -12.04 	 -49.42 	
-944 	 -1058 	 -6 	144.165 	 -17.71 	 -42.84 	
-1291 	 -1320 	 384 	151.725 	 -26.32 	 -29.085 	
-1775 	 -1817 	 1245 	159.215 	 -36.785 	 -11.795 	
-2094 	 -2386 	 2383 	165.55 	 -53.34 	 2.135 	
-1525 	 -2063 	 2875 	163.94 	 -71.96 	 -2.275 	
-1305 	 -886 	 2606 	129.5 	 -72.065 	 -32.515 	
-1088 	 861 	 1438 	50.925 	 -67.48 	 -87.15 	
-1175 	 2573 	 727 	-63.98 	 -53.34 	 -129.115 	
-558 	 3154 	 252 	-217.7 	 -34.3 	 -125.23 	
248 	 3078 	 -483 	-397.6 	 -12.53 	 -94.955 	
573 	 3507 	 -1575 	-578.41 	 11.41 	 -35.175 	
830 	 3587 	 -3031 	-748.44 	 45.85 	 62.16 	
1105 	 3326 	 -4584 	-889.91 	 88.34 	 140.42 	
1243 	 3003 	 -5690 	-988.47 	 142.065 	 184.485 	
1180 	 1708 	 -5682 	-1031.98 	 200.235 	 229.075 	
1176 	 478 	 -4321 	-993.37 	 249.76 	 262.15 	
770 	 -909 	 -2866 	-892.29 	 281.61 	 246.82 	
381 	 -2172 	 -1490 	-730.135 	 276.78 	 183.365 	
-290 	 -3175 	 -591 	-522.795 	 234.43 	 128.275 	
-453 	 -2522 	 -143 	-285.25 	 162.61 	 135.17 	
-930 	 -1818 	 -142 	-58.345 	 91.665 	 162.015 	
-703 	 -879 	 -620 	137.83 	 5.53 	 105.455 	
-551 	 109 	 -1298 	287.56 	 -67.095 	 -4.2 	
-478 	 691 	 -1876 	386.61 	 -116.13 	 -78.225 	
-384 	 1095 	 -2230 	443.31 	 -143.885 	 -104.335 	
-107 	 1341 	 -2478 	462.175 	 -158.27 	 -111.055 	
128 	 1304 	 -2538 	453.18 	 -156.695 	 -111.65 	
167 	 1212 	 -2312 	427.595 	 -144.445 	 -112.14 	
238 	 1011 	 -2146 	391.335 	 -127.33 	 -120.68 	
131 	 838 	 -1991 	351.295 	 -104.65 	 -135.695 	
120 	 781 	 -1850 	310.8 	 -83.965 	 -143.115 	
-58 	 640 	 -1681 	269.57 	 -63.315 	 -127.61 	
-136 	 494 	 -1540 	232.05 	 -48.825 	 -91.875 	
-150 	 254 	 -1377 	198.38 	 -38.115 	 -49.175 	
-209 	 75 	 -1216 	169.785 	 -30.555 	 -13.685 	
-230 	 -125 	 -1098 	145.46 	 -25.55 	 5.775 	
-258 	 -200 	 -1055 	126.63 	 -21.455 	 5.705 	
-209 	 -344 	 -1014 	111.125 	 -18.41 	 -7.665 	
-226 	 -420 	 -951 	100.1 	 -15.085 	 -21.525 	
-193 	 -450 	 -937 	91.945 	 -13.475 	 -27.475 	
-223 	 -396 	 -961 	86.625 	 -11.55 	 -26.565 	
-221 	 -416 	 -972 	82.845 	 -10.71 	 -24.395 	
-210 	 -420 	 -945 	80.815 	 -10.045 	 -24.36 	
-174 	 -442 	 -907 	79.94 	 -9.66 	 -24.675 	
-163 	 -420 	 -868 	80.5 	 -9.345 	 -23.065 	
-136 	 -461 	 -799 	81.76 	 -9.52 	 -18.83 	
-113 	 -512 	 -747 	84 	 -9.695 	 -13.265 	
-49 	 -550 	 -746 	86.8 	 -10.255 	 -9.135 	
7 	 -539 	 -776 	89.985 	 -9.87 	 -8.435 	
32 	 -513 	 -806 	92.68 	 -8.855 	 -10.815 	
-9 	 -495 	 -804 	95.095 	 -7.49 	 -14.07 	
-64 	 -488 	 -785 	96.985 	 -6.72 	 -16.17 	
-119 	 -478 	 -751 	98.805 	 -6.545 	 -16.94 	
-165 	 -507 	 -713 	100.345 	 -7.28 	 -16.52 	
-214 	 -546 	 -668 	102.06 	 -8.715 	 -14.84 	
-256 	 -580 	 -632 	104.23 	 -11.06 	 -12.005 	
-299 	 -598 	 -602 	106.645 	 -14 	 -8.33 	
-337 	 -625 	 -566 	109.2 	 -17.43 	 -4.27 	
-375 	 -671 	 -526 	111.755 	 -21.28 	 -0.35 	
-383 	 -709 	 -514 	114.695 	 -25.445 	 2.1 	
-384 	 -713 	 -504 	117.635 	 -29.225 	 0.91 	
-390 	 -730 	 -501 	120.05 	 -32.34 	 -5.6 	
-436 	 -763 	 -487 	122.5 	 -34.965 	 -17.08 	
-438 	 -769 	 -488 	124.845 	 -37.17 	 -32.305 	
-428 	 -801 	 -469 	127.05 	 -38.605 	 -48.825 	
-440 	 -854 	 -390 	129.745 	 -39.34 	 -62.16 	
-532 	 -913 	 -219 	133.455 	 -40.215 	 -66.85 	
-764 	 -924 	 126 	137.76 	 -41.58 	 -58.94 	
-1240 	 -1395 	 918 	140.21 	 -43.4 	 -32.305 	
-1471 	 -2185 	 2019 	143.99 	 -49.07 	 8.12 	
-852 	 -2078 	 2608 	142.135 	 -52.5 	 27.16 	
-520 	 -1830 	 2197 	114.94 	 -42.525 	 -4.97 	
-712 	 -35 	 1591 	63.91 	 -22.33 	 -82.495 	
-1076 	 1605 	 948 	-29.785 	 1.26 	 -141.645 	
-531 	 2477 	 193 	-158.55 	 24.395 	 -142.345 	
327 	 2378 	 -651 	-311.08 	 48.79 	 -106.995 	
885 	 2622 	 -1784 	-469.63 	 75.915 	 -56.49 	
873 	 2754 	 -3039 	-622.93 	 110.355 	 20.545 	
1177 	 2891 	 -4342 	-756.56 	 143.395 	 96.11 	
1268 	 2919 	 -5446 	-865.305 	 188.65 	 142.975 	
1248 	 2803 	 -6451 	-937.895 	 233.87 	 175.35 	
1090 	 874 	 -5997 	-960.26 	 280.28 	 226.1 	
1022 	 -1016 	 -3781 	-897.225 	 315.77 	 285.39 	
820 	 -2517 	 -1921 	-771.435 	 330.645 	 311.255 	
195 	 -3709 	 -979 	-594.195 	 315.665 	 288.4 	
-268 	 -3665 	 -236 	-379.015 	 262.15 	 271.04 	
-843 	 -3038 	 102 	-156.415 	 187.145 	 276.255 	
-933 	 -2164 	 -224 	46.06 	 88.025 	 236.6 	
-947 	 -865 	 -678 	210.77 	 -12.635 	 133.21 	
-828 	 -8 	 -1306 	321.51 	 -101.08 	 20.65 	
-677 	 605 	 -2007 	393.96 	 -164.605 	 -58.135 	
-469 	 882 	 -2313 	429.03 	 -206.64 	 -95.69 	
-200 	 919 	 -2415 	439.32 	 -231.875 	 -102.235 	
77 	 663 	 -2321 	433.44 	 -243.25 	 -92.61 	
292 	 493 	 -2147 	421.645 	 -244.3 	 -85.75 	
360 	 259 	 -1920 	404.495 	 -235.725 	 -92.925 	
452 	 108 	 -1810 	387.695 	 -221.55 	 -114.065 	
403 	 67 	 -1722 	371.28 	 -201.18 	 -138.6 	
363 	 8 	 -1656 	355.915 	 -179.725 	 -155.75 	
312 	 -14 	 -1476 	341.915 	 -157.99 	 -155.75 	
193 	 -136 	 -1269 	327.915 	 -138.285 	 -133.595 	
149 	 -241 	 -1148 	315.035 	 -123.515 	 -97.02 	
177 	 -278 	 -1138 	302.4 	 -112.175 	 -62.23 	
143 	 -415 	 -1071 	289.1 	 -100.905 	 -37.38 	
107 	 -444 	 -981 	276.64 	 -91.595 	 -22.155 	
19 	 -510 	 -885 	263.97 	 -83.405 	 -12.04 	
-68 	 -574 	 -760 	252.315 	 -75.95 	 -4.13 	
-132 	 -646 	 -646 	241.745 	 -70.175 	 1.645 	
-149 	 -727 	 -571 	232.155 	 -65.135 	 0.315 	
-158 	 -750 	 -513 	224.105 	 -59.605 	 -11.41 	
-159 	 -804 	 -473 	215.95 	 -53.375 	 -31.395 	
-153 	 -810 	 -425 	209.09 	 -46.62 	 -54.985 	
-176 	 -804 	 -368 	202.93 	 -39.795 	 -74.69 	
-199 	 -784 	 -324 	196.875 	 -33.495 	 -85.54 	
-216 	 -768 	 -234 	191.205 	 -27.195 	 -86.52 	
-183 	 -833 	 -174 	185.29 	 -22.68 	 -81.865 	
-163 	 -839 	 -119 	180.04 	 -18.06 	 -75.18 	
-173 	 -898 	 -74 	173.95 	 -13.79 	 -68.6 	
-191 	 -830 	 0 	168.945 	 -10.185 	 -62.405 	
-264 	 -752 	 221 	162.505 	 -7.595 	 -52.57 	
-512 	 -691 	 500 	154.385 	 -6.475 	 -36.645 	
-728 	 -813 	 843 	144.795 	 -10.08 	 -13.685 	
-993 	 -736 	 1280 	134.365 	 -15.19 	 8.645 	
-1211 	 -699 	 1705 	116.83 	 -23.485 	 18.76 	
-1243 	 -389 	 1854 	91.455 	 -32.655 	 -0.175 	
-977 	 -130 	 1937 	50.015 	 -36.54 	 -53.795 	
-593 	 237 	 1844 	-9.065 	 -35.21 	 -122.5 	
-389 	 869 	 1509 	-88.69 	 -31.78 	 -157.64 	
-484 	 1685 	 1160 	-185.78 	 -30.625 	 -104.475 	
-178 	 1868 	 520 	-305.9 	 -29.54 	 13.16 	
247 	 2002 	 -407 	-437.99 	 -17.605 	 93.555 	
553 	 1916 	 -1487 	-576.905 	 6.055 	 105.525 	
745 	 2385 	 -2746 	-707.245 	 38.15 	 115.15 	
1200 	 2224 	 -4001 	-828.66 	 76.895 	 171.255 	
1464 	 2338 	 -5306 	-924.735 	 131.705 	 251.685 	
1400 	 2687 	 -6638 	-992.215 	 201.81 	 325.57 	
802 	 2237 	 -7582 	-1029.25 	 284.48 	 377.16 	
793 	 -483 	 -6017 	-1008.32 	 362.6 	 403.83 	
1367 	 -1394 	 -3684 	-914.83 	 413.49 	 355.6 	
460 	 -2944 	 -2205 	-798.455 	 439.145 	 232.295 	
15 	 -2722 	 -1296 	-629.055 	 401.065 	 125.23 	
50 	 -3146 	 -995 	-447.825 	 328.895 	 166.81 	
-695 	 -1985 	 -329 	-228.165 	 259.525 	 311.78 	
-990 	 -1760 	 -26 	-37.31 	 169.995 	 398.44 	
-713 	 -1184 	 -386 	123.515 	 68.25 	 302.435 	
-520 	 -334 	 -852 	235.585 	 -24.885 	 105.91 	
-629 	 353 	 -1473 	313.775 	 -94.955 	 -36.96 	
-656 	 825 	 -1906 	363.335 	 -149.485 	 -82.145 	
-522 	 867 	 -2118 	384.58 	 -191.555 	 -75.11 	
-369 	 793 	 -2101 	388.85 	 -221.27 	 -62.895 	
-26 	 492 	 -1907 	379.89 	 -240.695 	 -70.49 	
181 	 301 	 -1787 	367.535 	 -246.505 	 -91.56 	
294 	 364 	 -1607 	353.22 	 -243.95 	 -107.66 	
340 	 287 	 -1550 	335.055 	 -235.48 	 -112.63 	
369 	 264 	 -1549 	316.575 	 -223.16 	 -112.07 	
351 	 19 	 -1443 	295.61 	 -208.39 	 -109.935 	
247 	 -41 	 -1308 	276.36 	 -193.13 	 -107.1 	
146 	 -194 	 -1202 	256.55 	 -179.48 	 -103.25 	
105 	 -179 	 -1181 	238.56 	 -167.685 	 -102.13 	
70 	 -231 	 -1180 	220.01 	 -157.01 	 -102.06 	
10 	 -246 	 -1164 	203.455 	 -147.35 	 -97.16 	
-74 	 -297 	 -1122 	187.495 	 -139.125 	 -81.655 	
-71 	 -253 	 -1124 	173.32 	 -133.21 	 -59.71 	
-108 	 -419 	 -1049 	159.25 	 -127.015 	 -40.18 	
-80 	 -592 	 -958 	148.19 	 -121.73 	 -30.485 	
-85 	 -758 	 -852 	139.755 	 -115.43 	 -30.905 	
-67 	 -826 	 -795 	134.54 	 -109.655 	 -38.57 	
-68 	 -835 	 -767 	131.39 	 -103.635 	 -49.77 	
-53 	 -877 	 -747 	129.57 	 -98 	 -62.65 	
-34 	 -865 	 -731 	129.36 	 -92.33 	 -75.74 	
-5 	 -888 	 -720 	129.57 	 -86.555 	 -86.03 	
18 	 -869 	 -730 	130.795 	 -80.885 	 -91 	
58 	 -881 	 -735 	132.125 	 -75.355 	 -89.6 	
80 	 -808 	 -760 	133.945 	 -69.615 	 -83.23 	
49 	 -756 	 -793 	134.785 	 -63.805 	 -71.89 	
43 	 -728 	 -763 	135.205 	 -58.625 	 -55.86 	
2 	 -786 	 -717 	135.17 	 -54.25 	 -36.47 	
-20 	 -835 	 -694 	135.555 	 -50.82 	 -16.52 	
-69 	 -924 	 -634 	136.08 	 -47.635 	 1.295 	
-79 	 -1032 	 -586 	136.535 	 -45.185 	 13.65 	
-83 	 -1119 	 -571 	137.62 	 -42.63 	 17.115 	
-60 	 -1159 	 -548 	138.565 	 -39.2 	 10.85 	
-54 	 -1197 	 -514 	139.545 	 -34.475 	 -3.57 	
-52 	 -1179 	 -533 	140.07 	 -29.12 	 -23.17 	
-62 	 -1086 	 -549 	140.665 	 -22.785 	 -44.835 	
-68 	 -1057 	 -535 	139.65 	 -15.575 	 -65.31 	
-81 	 -1006 	 -421 	138.88 	 -8.05 	 -81.515 	
-194 	 -910 	 -172 	136.92 	 -1.015 	 -89.74 	
-344 	 -923 	 213 	132.055 	 4.9 	 -84.21 	
-437 	 -1237 	 1074 	124.915 	 8.645 	 -62.16 	
-229 	 -1501 	 2205 	112.735 	 10.78 	 -29.75 	
44 	 -1349 	 3113 	86.94 	 13.93 	 15.715 	
-182 	 -66 	 3474 	33.46 	 18.305 	 95.235 	
-442 	 1522 	 2939 	-60.2 	 16.1 	 220.815 	
-21 	 2285 	 1728 	-199.675 	 31.15 	 326.83 	
648 	 2782 	 145 	-369.705 	 70.49 	 325.64 	
822 	 3454 	 -1418 	-555.17 	 129.64 	 283.325 	
817 	 4027 	 -3401 	-737.135 	 199.115 	 330.19 	
793 	 3873 	 -5880 	-893.62 	 277.585 	 423.115 	
417 	 4065 	 -7774 	-1002.75 	 369.075 	 455.91 	
-280 	 2171 	 -7926 	-1074.57 	 456.715 	 435.155 	
-90 	 -720 	 -5586 	-1041.53 	 506.59 	 376.95 	
-528 	 -1981 	 -3368 	-943.18 	 497.805 	 234.5 	
-2133 	 -3268 	 -858 	-799.155 	 433.685 	 61.25 	
-2040 	 -3292 	 224 	-632.135 	 299.215 	 -69.37 	
-2203 	 -4370 	 -393 	-435.015 	 157.325 	 -107.03 	
-1416 	 -2307 	 -176 	-182.91 	 6.65 	 -53.375 	
-1632 	 -1771 	 -155 	14.175 	 -93.45 	 41.335 	
-1016 	 -940 	 -708 	177.275 	 -195.615 	 4.34 	
-582 	 15 	 -1227 	297.955 	 -262.675 	 -122.605 	
-844 	 543 	 -1735 	381.5 	 -290.29 	 -199.045 	
-369 	 744 	 -2302 	430.325 	 -301.455 	 -207.69 	
-14 	 867 	 -2466 	450.205 	 -285.6 	 -189 	
487 	 804 	 -2631 	444.535 	 -259.175 	 -181.615 	
304 	 702 	 -2462 	423.605 	 -215.39 	 -187.915 	
111 	 705 	 -2071 	390.705 	 -172.2 	 -187.565 	
-161 	 613 	 -1807 	348.565 	 -131.075 	 -168.98 	
-246 	 583 	 -1667 	302.995 	 -98.63 	 -137.095 	
-339 	 436 	 -1479 	256.025 	 -70.735 	 -98.875 	
-376 	 317 	 -1318 	211.295 	 -49.035 	 -64.75 	
-419 	 132 	 -1151 	170.135 	 -32.2 	 -41.44 	
-478 	 -23 	 -1042 	135.1 	 -19.145 	 -33.18 	
-476 	 -188 	 -963 	106.715 	 -9.31 	 -41.685 	
-510 	 -252 	 -840 	84.98 	 -0.945 	 -63.14 	
-524 	 -368 	 -693 	67.76 	 5.67 	 -89.67 	
-512 	 -453 	 -626 	55.86 	 10.64 	 -112.14 	
-544 	 -471 	 -621 	47.915 	 12.67 	 -118.02 	
-382 	 -379 	 -768 	43.785 	 11.13 	 -98.385 	
-391 	 -431 	 -699 	40.845 	 12.145 	 -60.2 	
-187 	 -491 	 -698 	40.18 	 8.715 	 -24.15 	
-208 	 -506 	 -621 	40.25 	 8.365 	 -2.275 	
-133 	 -515 	 -671 	41.3 	 5.005 	 0.14 	
-187 	 -533 	 -660 	42.385 	 4.76 	 -11.69 	
-179 	 -480 	 -684 	44.905 	 1.855 	 -26.88 	
-237 	 -565 	 -622 	47.25 	 0.175 	 -37.415 	
-244 	 -604 	 -541 	51.66 	 -3.465 	 -43.89 	
-300 	 -677 	 -469 	56.385 	 -6.265 	 -48.335 	
-345 	 -702 	 -428 	62.825 	 -10.43 	 -51.415 	
-395 	 -741 	 -387 	69.23 	 -14.105 	 -51.87 	
-431 	 -714 	 -333 	76.51 	 -18.375 	 -49.665 	
-468 	 -731 	 -289 	82.425 	 -22.54 	 -46.06 	
-462 	 -727 	 -300 	88.305 	 -26.95 	 -43.645 	
-425 	 -667 	 -328 	92.75 	 -31.045 	 -42.525 	
-354 	 -596 	 -385 	96.04 	 -35.14 	 -40.285 	
-344 	 -517 	 -393 	97.545 	 -37.765 	 -37.31 	
-310 	 -449 	 -408 	97.265 	 -40.845 	 -35.315 	
-299 	 -384 	 -482 	95.55 	 -43.68 	 -34.965 	
-265 	 -387 	 -503 	92.575 	 -46.375 	 -36.54 	
-267 	 -437 	 -479 	89.285 	 -48.195 	 -39.69 	
-258 	 -500 	 -462 	86.065 	 -50.19 	 -44.345 	
-297 	 -516 	 -526 	83.475 	 -52.71 	 -51.24 	
-283 	 -522 	 -466 	81.06 	 -55.37 	 -56.665 	
-525 	 -573 	 -241 	78.54 	 -57.995 	 -54.95 	
-698 	 -742 	 70 	76.65 	 -64.61 	 -46.725 	
-932 	 -979 	 685 	74.76 	 -72.17 	 -35.105 	
-670 	 -1850 	 1800 	69.825 	 -82.775 	 -16.45 	
-211 	 -2514 	 2750 	65.555 	 -91.735 	 13.65 	
73 	 -1511 	 3373 	48.405 	 -96.04 	 49.91 	
-290 	 17 	 3452 	-8.645 	 -92.785 	 107.03 	
-266 	 1475 	 2409 	-107.94 	 -89.67 	 196.21 	
264 	 2703 	 891 	-245.945 	 -71.68 	 269.71 	
580 	 3657 	 -717 	-416.78 	 -27.965 	 286.895 	
367 	 4682 	 -2477 	-600.25 	 31.85 	 297.185 	
70 	 5195 	 -4415 	-777.455 	 99.82 	 356.23 	
-423 	 5460 	 -6366 	-926.45 	 178.29 	 431.515 	
-1097 	 5039 	 -7858 	-1037.4 	 262.15 	 470.96 	
-1464 	 1883 	 -7320 	-1088.12 	 342.65 	 453.25 	
-912 	 -633 	 -4650 	-1028.76 	 378.63 	 358.96 	
-1193 	 -2046 	 -2064 	-907.165 	 371.175 	 229.915 	
-1582 	 -3416 	 -1010 	-743.995 	 311.64 	 116.025 	
-1632 	 -4464 	 -797 	-533.085 	 209.055 	 40.215 	
-1150 	 -3341 	 -336 	-288.155 	 95.41 	 47.215 	
-1388 	 -2479 	 -336 	-63.42 	 5.425 	 111.895 	
-693 	 -1416 	 -777 	129.605 	 -96.11 	 87.535 	
-289 	 45 	 -1055 	275.765 	 -171.01 	 -19.425 	
-139 	 776 	 -1486 	368.655 	 -215.845 	 -103.005 	
12 	 1127 	 -2076 	424.13 	 -237.965 	 -150.185 	
204 	 1291 	 -2432 	446.985 	 -242.41 	 -179.165 	
294 	 1391 	 -2602 	447.685 	 -233.065 	 -185.815 	
189 	 1331 	 -2630 	431.62 	 -217.735 	 -162.68 	
-69 	 1346 	 -2418 	404.915 	 -203.035 	 -114.59 	
-268 	 1288 	 -2207 	369.005 	 -193.27 	 -58.87 	
-328 	 1200 	 -2036 	325.5 	 -185.78 	 -18.83 	
-395 	 960 	 -1859 	277.13 	 -177.205 	 -5.915 	
-426 	 988 	 -1731 	230.65 	 -168.7 	 -10.15 	
-571 	 954 	 -1574 	183.715 	 -159.39 	 -7.84 	
-687 	 897 	 -1406 	139.72 	 -152.53 	 8.96 	
-754 	 667 	 -1257 	99.33 	 -147.665 	 28.07 	
-782 	 525 	 -1104 	65.17 	 -143.92 	 32.83 	
-808 	 326 	 -1004 	36.085 	 -139.545 	 19.705 	
-758 	 210 	 -985 	14.49 	 -135.94 	 -4.48 	
-734 	 183 	 -966 	-1.26 	 -131.915 	 -25.515 	
-785 	 185 	 -908 	-12.11 	 -127.785 	 -32.13 	
-814 	 176 	 -843 	-19.04 	 -125.02 	 -24.115 	
-847 	 154 	 -803 	-22.82 	 -122.605 	 -10.57 	
-857 	 49 	 -727 	-23.345 	 -120.33 	 -2.135 	
-842 	 -121 	 -602 	-20.965 	 -117.985 	 -6.23 	
-784 	 -269 	 -557 	-14.63 	 -115.29 	 -23.765 	
-746 	 -302 	 -544 	-4.69 	 -111.93 	 -47.075 	
-756 	 -288 	 -527 	7.455 	 -107.905 	 -64.26 	
-767 	 -251 	 -528 	21.035 	 -104.58 	 -67.62 	
-761 	 -254 	 -543 	35.14 	 -101.255 	 -58.975 	
-763 	 -279 	 -548 	49.56 	 -97.44 	 -47.005 	
-781 	 -310 	 -494 	63.84 	 -93.415 	 -39.305 	
-841 	 -378 	 -426 	77.105 	 -89.39 	 -39.305 	
-830 	 -369 	 -451 	91 	 -84.77 	 -45.115 	
-913 	 -441 	 -445 	101.955 	 -81.305 	 -55.825 	
-860 	 -335 	 -480 	115.64 	 -76.79 	 -68.04 	
-902 	 -505 	 -477 	121.87 	 -72.94 	 -82.25 	
-914 	 -338 	 -494 	133.175 	 -68.915 	 -98.7 	
-967 	 -471 	 -432 	137.2 	 -64.645 	 -110.88 	
-960 	 -392 	 -414 	144.06 	 -61.11 	 -118.125 	
-985 	 -420 	 -341 	147.945 	 -57.715 	 -118.23 	
-961 	 -415 	 -301 	150.535 	 -55.16 	 -112.595 	
-973 	 -540 	 -248 	151.515 	 -52.85 	 -103.04 	
-939 	 -638 	 -105 	152.425 	 -50.19 	 -95.13 	
-866 	 -935 	 110 	151.865 	 -45.57 	 -93.485 	
-611 	 -1338 	 514 	152.39 	 -39.62 	 -107.065 	
-144 	 -1857 	 1218 	153.685 	 -27.125 	 -140.595 	
486 	 -2599 	 1987 	152.845 	 -7.28 	 -185.115 	
1023 	 -2537 	 2484 	148.19 	 21.56 	 -214.06 	
1064 	 -1590 	 2605 	124.215 	 54.845 	 -176.365 	
593 	 1016 	 2323 	70.84 	 83.755 	 -36.785 	
-2 	 2151 	 1489 	-29.505 	 101.57 	 173.635 	
686 	 2786 	 289 	-147.875 	 132.475 	 335.09 	
505 	 3026 	 -615 	-294.63 	 196.07 	 361.375 	
449 	 3893 	 -1981 	-444.57 	 255.71 	 317.065 	
-241 	 4390 	 -3282 	-584.885 	 326.13 	 327.215 	
-531 	 4169 	 -4612 	-702.66 	 388.85 	 392.21 	
-1199 	 3750 	 -5466 	-776.72 	 460.32 	 453.775 	
-1263 	 2307 	 -5181 	-800.24 	 520.8 	 477.225 	
-1219 	 388 	 -3581 	-750.4 	 562.94 	 436.1 	
-1413 	 -752 	 -1905 	-648.27 	 567.28 	 325.045 	
-1842 	 -1715 	 -718 	-513.905 	 527.87 	 207.235 	
-1836 	 -2882 	 -545 	-352.31 	 443.835 	 128.17 	
-1297 	 -2542 	 -406 	-157.15 	 336.455 	 119.21 	
-1375 	 -1753 	 -255 	30.59 	 241.325 	 184.73 	
-938 	 -1184 	 -646 	193.2 	 137.97 	 222.915 	
-361 	 -142 	 -985 	320.075 	 42.595 	 155.61 	
-134 	 487 	 -1359 	394.8 	 -24.605 	 44.17 	
-63 	 948 	 -1856 	434.21 	 -66.255 	 -40.88 	
21 	 1197 	 -2144 	443.205 	 -89.005 	 -82.215 	
54 	 1352 	 -2285 	430.045 	 -97.72 	 -90.685 	
16 	 1357 	 -2139 	400.855 	 -97.335 	 -85.54 	
39 	 1218 	 -2041 	361.375 	 -92.4 	 -83.685 	
-2 	 1144 	 -1871 	317.24 	 -82.53 	 -84.77 	
-85 	 1045 	 -1651 	270.27 	 -71.19 	 -77.35 	
-171 	 832 	 -1468 	222.635 	 -59.85 	 -59.29 	
-138 	 684 	 -1392 	178.745 	 -50.4 	 -39.095 	
-225 	 511 	 -1218 	137.97 	 -40.04 	 -24.395 	
-175 	 274 	 -1198 	100.765 	 -30.345 	 -23.03 	
-106 	 140 	 -1198 	70.42 	 -20.93 	 -34.86 	
-121 	 60 	 -1098 	45.115 	 -11.27 	 -45.885 	
-151 	 -61 	 -998 	24.815 	 -3.29 	 -45.185 	
-133 	 -203 	 -933 	9.94 	 2.275 	 -34.755 	
-95 	 -293 	 -900 	0.35 	 6.615 	 -21.385 	
-44 	 -291 	 -915 	-5.6 	 9.905 	 -9.135 	
-40 	 -233 	 -970 	-8.61 	 12.67 	 1.575 	
-38 	 -241 	 -977 	-9.765 	 14.91 	 10.85 	
-55 	 -261 	 -920 	-8.82 	 16.66 	 17.745 	
-35 	 -251 	 -936 	-5.915 	 17.115 	 21.21 	
-72 	 -281 	 -936 	-1.015 	 17.605 	 21.175 	
-75 	 -329 	 -918 	5.53 	 16.765 	 17.745 	
-78 	 -330 	 -901 	13.685 	 15.575 	 12.145 	
-88 	 -305 	 -916 	22.75 	 13.65 	 6.51 	
-112 	 -296 	 -929 	32.655 	 10.78 	 3.115 	
-105 	 -314 	 -891 	42.875 	 7 	 3.78 	
-112 	 -305 	 -883 	53.76 	 2.765 	 8.96 	
-160 	 -354 	 -882 	64.96 	 -2.065 	 18.025 	
-184 	 -454 	 -862 	76.3 	 -7.805 	 26.25 	
-173 	 -498 	 -865 	87.885 	 -13.44 	 27.195 	
-164 	 -524 	 -912 	98.875 	 -18.62 	 18.41 	
-170 	 -559 	 -966 	109.69 	 -23.31 	 2.87 	
-184 	 -598 	 -959 	119.595 	 -27.265 	 -14.665 	
-184 	 -598 	 -954 	129.465 	 -31.15 	 -31.045 	
-197 	 -599 	 -945 	138.635 	 -34.475 	 -44.52 	
-230 	 -605 	 -946 	147.7 	 -37.835 	 -53.515 	
-277 	 -661 	 -909 	156.205 	 -41.09 	 -57.4 	
-312 	 -715 	 -874 	165.095 	 -44.835 	 -57.19 	
-352 	 -762 	 -856 	173.915 	 -48.545 	 -55.125 	
-375 	 -820 	 -844 	182.735 	 -52.535 	 -53.935 	
-387 	 -925 	 -822 	191.38 	 -56.14 	 -55.825 	
-374 	 -1008 	 -807 	200.445 	 -59.29 	 -62.65 	
-358 	 -1060 	 -772 	209.51 	 -61.495 	 -74.515 	
-404 	 -1068 	 -639 	219.135 	 -62.615 	 -87.605 	
-679 	 -1204 	 -318 	228.69 	 -63.455 	 -91.28 	
-1186 	 -1520 	 183 	238.91 	 -67.725 	 -76.72 	
-1707 	 -2008 	 1096 	249.13 	 -76.44 	 -52.045 	
-1930 	 -2352 	 2062 	255.36 	 -90.3 	 -42.49 	
-1487 	 -1928 	 2260 	248.185 	 -101.01 	 -73.08 	
-1274 	 -842 	 1951 	209.93 	 -94.43 	 -144.34 	
-1177 	 880 	 1401 	137.76 	 -84.49 	 -215.075 	
-1184 	 2444 	 1133 	23.1 	 -71.4 	 -208.285 	
-675 	 3014 	 697 	-128.485 	 -60.725 	 -100.24 	
195 	 2982 	 -325 	-307.055 	 -43.47 	 16.24 	
630 	 3425 	 -1706 	-490.21 	 -10.325 	 68.285 	
868 	 3894 	 -3362 	-665.805 	 29.505 	 96.985 	
1054 	 4148 	 -5224 	-817.6 	 72.415 	 153.93 	
1018 	 4007 	 -6826 	-936.075 	 126.98 	 221.445 	
1072 	 2144 	 -7022 	-1002.33 	 188.09 	 266.875 	
1017 	 -52 	 -4854 	-978.285 	 236.18 	 268.03 	
385 	 -1415 	 -2750 	-886.935 	 259.175 	 223.72 	
-173 	 -2781 	 -1482 	-740.46 	 241.71 	 162.54 	
-367 	 -3954 	 -975 	-551.39 	 182.84 	 114.765 	
-661 	 -3420 	 -420 	-321.055 	 109.445 	 136.57 	
-925 	 -2508 	 -243 	-93.065 	 36.925 	 206.15 	
-672 	 -1850 	 -698 	98.175 	 -45.71 	 190.47 	
-359 	 -436 	 -1197 	253.54 	 -120.82 	 80.01 	
-271 	 336 	 -1743 	360.57 	 -169.995 	 -10.675 	
-216 	 821 	 -2260 	429.905 	 -197.785 	 -56.7 	
-226 	 1005 	 -2543 	464.1 	 -208.81 	 -81.375 	
-105 	 993 	 -2627 	473.55 	 -207.725 	 -99.785 	
6 	 889 	 -2461 	467.74 	 -195.51 	 -117.495 	
-58 	 769 	 -2103 	450.66 	 -174.3 	 -133.805 	
7 	 564 	 -1926 	426.545 	 -151.305 	 -152.145 	
27 	 520 	 -1838 	399.77 	 -124.39 	 -172.9 	
26 	 435 	 -1665 	370.265 	 -96.145 	 -182.245 	
-38 	 512 	 -1454 	340.165 	 -69.615 	 -167.335 	
-175 	 283 	 -1255 	307.37 	 -47.95 	 -125.475 	
-127 	 342 	 -1136 	280.21 	 -33.11 	 -73.71 	
-195 	 -20 	 -901 	251.755 	 -20.615 	 -27.405 	
-145 	 -116 	 -780 	229.53 	 -12.705 	 1.575 	
-279 	 -332 	 -640 	208.88 	 -5.18 	 15.19 	
-285 	 -322 	 -643 	192.5 	 -1.365 	 13.195 	
-365 	 -394 	 -620 	176.995 	 2.765 	 -0.21 	
-376 	 -412 	 -624 	163.59 	 4.935 	 -19.95 	
-415 	 -436 	 -594 	151.34 	 6.825 	 -37.45 	
-411 	 -466 	 -586 	140.595 	 7.07 	 -47.67 	
-438 	 -482 	 -537 	131.775 	 6.755 	 -50.645 	
-373 	 -511 	 -539 	123.55 	 4.83 	 -48.965 	
-380 	 -519 	 -538 	117.145 	 3.255 	 -44.59 	
-321 	 -541 	 -533 	111.02 	 0.665 	 -38.815 	
-314 	 -553 	 -517 	105.98 	 -1.26 	 -32.935 	
-274 	 -593 	 -521 	101.045 	 -3.85 	 -28.63 	
-277 	 -609 	 -524 	96.985 	 -5.81 	 -26.705 	
-264 	 -653 	 -527 	93.205 	 -8.19 	 -26.985 	
-300 	 -683 	 -516 	90.3 	 -10.395 	 -28.245 	
-328 	 -735 	 -487 	87.85 	 -13.37 	 -29.05 	
-367 	 -770 	 -449 	86.31 	 -16.695 	 -28.98 	
-400 	 -823 	 -409 	85.26 	 -20.86 	 -28.105 	
-438 	 -839 	 -376 	85.19 	 -25.515 	 -26.32 	
-478 	 -860 	 -338 	85.19 	 -30.835 	 -23.66 	
-539 	 -831 	 -276 	85.54 	 -36.54 	 -20.09 	
-646 	 -845 	 -166 	84.49 	 -42.735 	 -15.155 	
-784 	 -732 	 4 	83.755 	 -50.05 	 -11.41 	
-1163 	 -758 	 380 	78.89 	 -57.33 	 -10.64 	
-1520 	 -883 	 939 	70.84 	 -67.165 	 -15.575 	
-1609 	 -911 	 1455 	56.875 	 -79.45 	 -35.385 	
-1189 	 -779 	 1747 	31.71 	 -88.97 	 -75.32 	
-1101 	 -402 	 1780 	-11.83 	 -88.06 	 -117.32 	
-1144 	 732 	 1566 	-75.775 	 -84.98 	 -129.815 	
-1052 	 1500 	 1098 	-169.015 	 -77.245 	 -94.85 	
-308 	 1761 	 403 	-283.535 	 -62.965 	 -53.69 	
338 	 1727 	 -347 	-412.475 	 -34.755 	 -44.695 	
670 	 2051 	 -1256 	-543.06 	 0.525 	 -33.915 	
985 	 2212 	 -2254 	-668.08 	 39.585 	 27.545 	
1270 	 2132 	 -3397 	-777.42 	 88.13 	 122.08 	
1389 	 2278 	 -4722 	-858.935 	 148.085 	 204.82 	
1328 	 1815 	 -5796 	-908.495 	 215.25 	 261.135 	
1083 	 453 	 -5112 	-906.465 	 280.77 	 295.05 	
1437 	 -204 	 -3651 	-847.7 	 322.84 	 281.085 	
888 	 -1318 	 -2405 	-757.54 	 343.385 	 200.2 	
162 	 -1470 	 -1366 	-625.38 	 315.28 	 89.32 	
-359 	 -2408 	 -955 	-478.24 	 246.295 	 36.47 	
-618 	 -1804 	 -545 	-293.16 	 158.55 	 69.37 	
-994 	 -1327 	 -187 	-122.36 	 71.015 	 145.355 	
-1151 	 -760 	 -418 	28.735 	 -19.25 	 166.565 	
-872 	 -157 	 -820 	147.77 	 -108.115 	 94.675 	
-843 	 486 	 -1220 	234.36 	 -173.88 	 -12.53 	
-790 	 771 	 -1609 	291.27 	 -218.82 	 -89.635 	
-613 	 935 	 -1852 	327.285 	 -245.385 	 -128.59 	
-447 	 858 	 -1914 	344.12 	 -255.885 	 -141.855 	
-251 	 730 	 -1956 	349.37 	 -253.995 	 -142.1 	
2 	 462 	 -1921 	346.64 	 -242.34 	 -146.475 	
143 	 280 	 -1922 	340.655 	 -221.515 	 -165.48 	
122 	 128 	 -1874 	331.485 	 -194.32 	 -188.3 	
25 	 141 	 -1764 	321.44 	 -165.2 	 -197.995 	
-111 	 114 	 -1646 	308.455 	 -137.865 	 -184.485 	
-257 	 74 	 -1481 	294.21 	 -114.765 	 -147.315 	
-367 	 -4 	 -1317 	278.25 	 -97.265 	 -95.97 	
-402 	 -86 	 -1259 	261.8 	 -84.595 	 -47.81 	
-409 	 -189 	 -1215 	244.965 	 -74.795 	 -17.43 	
-437 	 -304 	 -1152 	228.445 	 -66.43 	 -8.225 	
-498 	 -345 	 -1094 	213.115 	 -59.185 	 -12.18 	
-555 	 -422 	 -1030 	198.975 	 -53.48 	 -19.81 	
-578 	 -463 	 -967 	186.55 	 -49.21 	 -26.81 	
-608 	 -496 	 -876 	175.525 	 -45.36 	 -31.885 	
-568 	 -520 	 -850 	165.445 	 -43.12 	 -37.03 	
-467 	 -488 	 -873 	156.275 	 -40.04 	 -45.325 	
-392 	 -498 	 -868 	147.07 	 -35.63 	 -57.61 	
-321 	 -482 	 -832 	138.53 	 -30.45 	 -70.245 	
-291 	 -480 	 -781 	130.515 	 -25.06 	 -78.295 	
-249 	 -497 	 -723 	123.41 	 -20.195 	 -79.31 	
-235 	 -531 	 -652 	117.495 	 -15.925 	 -73.64 	
-218 	 -585 	 -574 	112.665 	 -12.6 	 -63.49 	
-222 	 -644 	 -496 	109.095 	 -10.08 	 -51.065 	
-231 	 -701 	 -447 	106.505 	 -8.435 	 -37.905 	
-259 	 -729 	 -423 	105.07 	 -7.63 	 -25.165 	
-294 	 -744 	 -403 	104.02 	 -7.63 	 -14 	
-342 	 -756 	 -387 	103.18 	 -8.33 	 -5.705 	
-389 	 -756 	 -376 	102.305 	 -9.73 	 -1.645 	
-430 	 -762 	 -363 	101.115 	 -11.55 	 -1.75 	
-456 	 -782 	 -349 	99.715 	 -13.755 	 -4.655 	
-472 	 -763 	 -356 	98.42 	 -16.24 	 -9.45 	
-461 	 -741 	 -351 	96.565 	 -18.725 	 -15.925 	
-476 	 -728 	 -314 	94.535 	 -20.79 	 -22.995 	
-502 	 -664 	 -217 	92.33 	 -23.135 	 -28.49 	
-675 	 -619 	 29 	89.565 	 -25.69 	 -29.82 	
-1069 	 -528 	 509 	85.54 	 -30.31 	 -25.865 	
-1688 	 -844 	 1375 	76.895 	 -37.975 	 -17.08 	
-1828 	 -1168 	 2262 	64.925 	 -51.94 	 -12.46 	
-1125 	 -1131 	 2742 	42.035 	 -61.985 	 -23.135 	
-884 	 -446 	 2713 	-3.08 	 -58.1 	 -51.31 	
-643 	 843 	 2301 	-73.64 	 -50.96 	 -80.29 	
-574 	 1838 	 1827 	-178.43 	 -31.045 	 -74.795 	
30 	 2229 	 1027 	-308.91 	 -9.73 	 -35.245 	
545 	 2413 	 -64 	-454.65 	 22.68 	 12.635 	
840 	 2724 	 -1441 	-603.75 	 64.715 	 73.255 	
1025 	 2896 	 -3024 	-742.315 	 116.025 	 155.12 	
1144 	 3114 	 -4868 	-856.52 	 175.455 	 222.39 	
1074 	 3139 	 -6313 	-944.72 	 242.97 	 247.1 	
689 	 1563 	 -6704 	-993.125 	 305.305 	 242.62 	
640 	 365 	 -5102 	-965.72 	 343.42 	 223.825 	
382 	 -572 	 -3876 	-892.01 	 350.805 	 199.92 	
-309 	 -1374 	 -2088 	-756.035 	 332.22 	 168.35 	
-183 	 -2615 	 -1188 	-601.265 	 270.34 	 117.985 	
-825 	 -2759 	 -775 	-403.55 	 197.61 	 105.98 	
-813 	 -2133 	 -511 	-188.615 	 103.705 	 166.565 	
-1003 	 -1487 	 -535 	9.94 	 19.285 	 200.095 	
-950 	 -933 	 -855 	165.06 	 -69.755 	 122.255 	
-766 	 -206 	 -1418 	288.505 	 -142.835 	 3.85 	
-706 	 266 	 -1808 	375.06 	 -189.63 	 -73.01 	
-469 	 531 	 -2213 	429.31 	 -216.755 	 -113.715 	
-256 	 687 	 -2407 	455.07 	 -224.21 	 -142.1 	
115 	 634 	 -2519 	458.78 	 -216.65 	 -161.91 	
180 	 649 	 -2358 	449.995 	 -194.95 	 -165.935 	
197 	 658 	 -2148 	429.765 	 -171.045 	 -147.7 	
-6 	 629 	 -1890 	401.835 	 -145.845 	 -106.785 	
-110 	 534 	 -1688 	367.78 	 -126.07 	 -59.43 	
-133 	 464 	 -1664 	333.2 	 -109.69 	 -22.155 	
-162 	 361 	 -1509 	296.87 	 -94.465 	 0.21 	
-334 	 273 	 -1315 	259.91 	 -79.52 	 5.915 	
-402 	 127 	 -1296 	223.93 	 -67.305 	 -7.175 	
-396 	 82 	 -1278 	192.85 	 -56.735 	 -30.695 	
-475 	 50 	 -1183 	163.695 	 -46.375 	 -47.285 	
-495 	 -5 	 -1118 	138.04 	 -39.655 	 -44.52 	
-483 	 -59 	 -1035 	116.025 	 -35.245 	 -23.38 	
-440 	 -123 	 -968 	97.405 	 -32.865 	 4.69 	
-403 	 -176 	 -906 	82.005 	 -30.835 	 26.985 	
-413 	 -278 	 -801 	69.37 	 -28.42 	 37.555 	
-348 	 -305 	 -776 	59.815 	 -27.125 	 37.73 	
-360 	 -336 	 -774 	52.815 	 -24.22 	 31.535 	
-311 	 -408 	 -739 	48.405 	 -21.91 	 21.315 	
-243 	 -476 	 -704 	46.34 	 -19.075 	 9.59 	
-159 	 -512 	 -704 	46.655 	 -16.555 	 -0.315 	
-125 	 -543 	 -706 	48.545 	 -13.545 	 -5.495 	
-122 	 -557 	 -676 	51.835 	 -11.06 	 -4.515 	
-140 	 -572 	 -631 	55.86 	 -9.135 	 2.94 	
-181 	 -542 	 -599 	60.655 	 -8.47 	 15.82 	
-232 	 -508 	 -593 	65.275 	 -8.785 	 31.605 	
-297 	 -504 	 -570 	69.545 	 -10.08 	 46.55 	
-361 	 -580 	 -527 	73.465 	 -12.075 	 56.665 	
-389 	 -658 	 -493 	77.91 	 -15.085 	 58.03 	
-371 	 -733 	 -464 	82.46 	 -18.165 	 49.07 	
-379 	 -823 	 -437 	87.43 	 -20.545 	 32.865 	
-398 	 -892 	 -416 	92.855 	 -22.925 	 15.47 	
-413 	 -891 	 -413 	98.77 	 -25.48 	 1.75 	
-459 	 -882 	 -362 	104.405 	 -27.58 	 -6.335 	
-565 	 -917 	 -177 	109.025 	 -30.1 	 -8.96 	
-724 	 -1060 	 3 	112.735 	 -33.74 	 -7.77 	
-874 	 -1118 	 137 	116.375 	 -39.41 	 -7.385 	
-1075 	 -1069 	 567 	117.6 	 -44.555 	 -11.375 	
-1291 	 -1264 	 1270 	111.615 	 -49.98 	 -16.905 	
-1164 	 -1262 	 1712 	96.74 	 -57.155 	 -21.49 	
-936 	 -724 	 1819 	62.055 	 -58.52 	 -22.575 	
-816 	 24 	 1547 	-0.98 	 -51.975 	 -14.28 	
-572 	 1082 	 1080 	-91.035 	 -38.535 	 -2.38 	
-23 	 1749 	 433 	-212.135 	 -16.17 	 0.315 	
370 	 2215 	 -338 	-353.22 	 16.03 	 3.5 	
641 	 2625 	 -1383 	-499.38 	 51.065 	 40.775 	
751 	 2743 	 -2541 	-636.37 	 91.385 	 106.96 	
835 	 2637 	 -3749 	-752.71 	 134.96 	 151.62 	
852 	 2553 	 -4842 	-839.755 	 179.515 	 152.145 	
847 	 1643 	 -5028 	-884.695 	 216.02 	 134.96 	
732 	 957 	 -4185 	-872.025 	 235.655 	 139.37 	
443 	 69 	 -2985 	-804.825 	 239.575 	 195.44 	
313 	 -1265 	 -1643 	-684.53 	 227.71 	 262.5 	
39 	 -2213 	 -842 	-527.59 	 201.145 	 270.095 	
-439 	 -2331 	 -399 	-348.705 	 151.06 	 241.01 	
-648 	 -1806 	 -294 	-153.545 	 81.655 	 221.97 	
-698 	 -1121 	 -313 	19.67 	 6.23 	 180.95 	
-578 	 -603 	 -650 	157.64 	 -67.935 	 96.18 	
-578 	 73 	 -1018 	267.19 	 -128.38 	 6.51 	
-508 	 342 	 -1437 	341.95 	 -169.925 	 -57.47 	
-478 	 660 	 -1790 	389.165 	 -192.815 	 -102.025 	
-242 	 747 	 -2042 	409.255 	 -202.405 	 -135.765 	
-103 	 776 	 -2123 	413.105 	 -196.455 	 -159.775 	
96 	 700 	 -2127 	404.11 	 -182.63 	 -172.34 	
95 	 688 	 -2025 	387.45 	 -161.595 	 -170.275 	
96 	 697 	 -1913 	364.455 	 -140.14 	 -152.88 	
10 	 625 	 -1786 	337.54 	 -119.28 	 -125.755 	
-80 	 567 	 -1556 	308.84 	 -101.745 	 -94.815 	
-164 	 511 	 -1396 	278.915 	 -87.99 	 -63.385 	
-266 	 322 	 -1231 	248.955 	 -76.755 	 -39.27 	
-225 	 164 	 -1204 	220.29 	 -68.6 	 -32.13 	
-254 	 58 	 -1164 	194.005 	 -59.78 	 -40.67 	
-267 	 11 	 -1123 	169.47 	 -52.605 	 -54.285 	
-333 	 -19 	 -1086 	147.35 	 -46.13 	 -62.23 	
-337 	 -64 	 -1025 	127.89 	 -41.685 	 -59.85 	
-357 	 -122 	 -974 	110.985 	 -38.29 	 -48.055 	
-331 	 -174 	 -950 	96.74 	 -36.54 	 -31.43 	
-346 	 -282 	 -881 	85.085 	 -34.895 	 -14.91 	
-378 	 -383 	 -786 	75.6 	 -33.81 	 -3.465 	
-393 	 -461 	 -733 	68.32 	 -33.04 	 -1.12 	
-310 	 -589 	 -761 	62.265 	 -31.71 	 -7.7 	
-213 	 -588 	 -826 	58.73 	 -29.575 	 -17.57 	
-188 	 -549 	 -866 	55.58 	 -26.075 	 -22.855 	
-250 	 -491 	 -859 	53.2 	 -22.54 	 -19.495 	
-301 	 -480 	 -836 	50.82 	 -19.74 	 -9.87 	
-327 	 -539 	 -791 	49.245 	 -17.745 	 0.28 	
-327 	 -604 	 -762 	48.755 	 -16.345 	 7 	
-359 	 -646 	 -747 	49.42 	 -15.12 	 10.43 	
-383 	 -654 	 -736 	50.96 	 -14.56 	 12.39 	
-437 	 -597 	 -743 	52.92 	 -14.455 	 14.175 	
-490 	 -493 	 -796 	55.055 	 -15.015 	 15.575 	
-565 	 -319 	 -874 	57.05 	 -16.03 	 15.47 	
-540 	 -425 	 -813 	57.925 	 -17.5 	 13.3 	
-499 	 -680 	 -616 	61.425 	 -18.585 	 9.275 	
-518 	 -1012 	 -295 	68.705 	 -18.76 	 7.07 	
-834 	 -1505 	 301 	80.71 	 -18.725 	 14.98 	
-1067 	 -1991 	 1104 	96.845 	 -22.68 	 34.055 	
-1083 	 -2380 	 1644 	113.33 	 -26.705 	 51.73 	
-560 	 -2362 	 1818 	123.97 	 -26.635 	 49.035 	
-315 	 -1234 	 1555 	117.81 	 -15.47 	 17.01 	
-496 	 104 	 1242 	78.75 	 4.165 	 -23.1 	
-788 	 1444 	 1012 	6.125 	 26.04 	 -32.83 	
-534 	 1862 	 582 	-100.975 	 46.69 	 -8.995 	
-162 	 2314 	 -17 	-228.095 	 72.275 	 12.915 	
48 	 2734 	 -835 	-373.625 	 101.36 	 34.65 	
198 	 3204 	 -1949 	-520.1 	 131.53 	 87.01 	
559 	 3546 	 -3196 	-656.285 	 163.975 	 164.99 	
676 	 3727 	 -4679 	-772.24 	 207.795 	 228.06 	
580 	 3399 	 -5941 	-853.265 	 256.2 	 252.49 	
343 	 1552 	 -5448 	-893.55 	 303.135 	 241.22 	
603 	 198 	 -3604 	-856.695 	 322.035 	 202.09 	
4 	 -1584 	 -1852 	-774.2 	 317.73 	 156.94 	
-399 	 -2480 	 -790 	-630.98 	 273.42 	 119.385 	
-910 	 -3181 	 -287 	-460.985 	 204.505 	 116.55 	
-974 	 -2773 	 -139 	-259.21 	 115.92 	 143.535 	
-1301 	 -1976 	 -23 	-67.235 	 30.625 	 155.68 	
-1080 	 -1282 	 -484 	93.38 	 -60.445 	 97.65 	
-826 	 -244 	 -884 	221.55 	 -136.29 	 -13.335 	
-503 	 281 	 -1341 	307.475 	 -188.58 	 -107.695 	
-411 	 776 	 -1773 	365.12 	 -214.025 	 -154.525 	
-159 	 944 	 -2045 	391.405 	 -224.595 	 -164.325 	
-22 	 1074 	 -2178 	397.565 	 -219.695 	 -154.735 	
52 	 1018 	 -2067 	386.82 	 -206.15 	 -138.39 	
81 	 894 	 -1941 	364.98 	 -186.97 	 -126.035 	
37 	 801 	 -1795 	335.755 	 -164.185 	 -117.705 	
0 	 752 	 -1697 	301.315 	 -141.295 	 -107.66 	
-174 	 794 	 -1522 	264.11 	 -118.44 	 -87.43 	
-266 	 776 	 -1360 	224.735 	 -100.415 	 -58.59 	
-347 	 564 	 -1197 	184.205 	 -83.16 	 -37.03 	
-273 	 305 	 -1208 	146.615 	 -69.16 	 -38.43 	
-368 	 287 	 -1158 	114.415 	 -55.09 	 -55.405 	
-453 	 175 	 -1024 	85.295 	 -43.785 	 -65.765 	
-525 	 174 	 -931 	61.425 	 -35.98 	 -62.72 	
-484 	 41 	 -841 	41.125 	 -31.71 	 -49.21 	
-510 	 49 	 -783 	26.39 	 -28.105 	 -31.36 	
-522 	 33 	 -755 	14.315 	 -26.67 	 -12.18 	
-530 	 5 	 -713 	5.25 	 -24.955 	 4.165 	
-431 	 -65 	 -693 	-1.26 	 -23.31 	 13.545 	
-359 	 -127 	 -723 	-4.97 	 -19.915 	 13.195 	
-257 	 -226 	 -751 	-6.16 	 -15.82 	 2.94 	
-246 	 -311 	 -746 	-4.76 	 -10.115 	 -13.37 	
-227 	 -298 	 -736 	-0.7 	 -4.935 	 -29.26 	
-273 	 -256 	 -747 	4.725 	 0.035 	 -39.025 	
-305 	 -248 	 -739 	11.06 	 3.535 	 -41.16 	
-348 	 -210 	 -733 	18.095 	 6.125 	 -37.66 	
-377 	 -229 	 -741 	25.2 	 7.735 	 -31.99 	
-376 	 -264 	 -771 	32.62 	 8.82 	 -27.265 	
-345 	 -283 	 -833 	40.04 	 9.45 	 -24.92 	
-346 	 -288 	 -910 	47.39 	 10.29 	 -24.535 	
-376 	 -291 	 -933 	54.215 	 10.85 	 -24.325 	
-423 	 -283 	 -940 	60.375 	 10.5 	 -23.31 	
-490 	 -278 	 -968 	66.01 	 9.205 	 -21.455 	
-576 	 -287 	 -962 	70.735 	 6.86 	 -19.18 	
-630 	 -320 	 -964 	74.935 	 3.15 	 -17.535 	
-663 	 -353 	 -986 	78.645 	 -1.05 	 -17.5 	
-646 	 -359 	 -990 	81.865 	 -5.705 	 -19.915 	
-640 	 -374 	 -970 	84.455 	 -9.905 	 -24.115 	
-601 	 -411 	 -925 	86.52 	 -13.23 	 -28.42 	
-557 	 -403 	 -899 	88.48 	 -15.785 	 -30.66 	
-473 	 -414 	 -909 	89.95 	 -17.815 	 -30.625 	
-418 	 -432 	 -885 	91.14 	 -17.885 	 -29.505 	
-356 	 -460 	 -858 	92.155 	 -16.975 	 -28.35 	
-308 	 -485 	 -825 	93.065 	 -14.98 	 -27.265 	
-250 	 -554 	 -793 	93.975 	 -12.215 	 -26.075 	
-250 	 -635 	 -735 	95.34 	 -8.295 	 -23.485 	
-314 	 -694 	 -596 	97.475 	 -4.62 	 -17.71 	
-506 	 -835 	 -337 	99.89 	 -1.05 	 -7.035 	
-747 	 -1179 	 107 	102.795 	 1.715 	 9.8 	
-910 	 -1847 	 870 	106.505 	 2.38 	 31.92 	
-932 	 -2299 	 1686 	109.865 	 0.875 	 49.595 	
-817 	 -2030 	 2130 	103.81 	 2.1 	 49.105 	
-706 	 -789 	 1996 	73.71 	 10.045 	 30.66 	
-727 	 608 	 1465 	8.82 	 20.965 	 18.935 	
-453 	 1963 	 751 	-89.11 	 35.455 	 31.115 	
-171 	 2469 	 78 	-218.645 	 59.395 	 64.68 	
128 	 2998 	 -791 	-362.915 	 88.48 	 94.675 	
244 	 3500 	 -1821 	-511.14 	 123.9 	 117.985 	
440 	 3833 	 -3135 	-649.355 	 158.305 	 144.2 	
608 	 3743 	 -4427 	-764.225 	 193.76 	 168.245 	
594 	 2950 	 -5153 	-843.745 	 229.775 	 179.41 	
510 	 1099 	 -4334 	-865.585 	 255.92 	 177.59 	
511 	 17 	 -2688 	-820.785 	 258.02 	 160.615 	
-229 	 -1606 	 -1306 	-724.815 	 240.03 	 147.105 	
-660 	 -2591 	 -614 	-576.87 	 185.675 	 131.11 	
-912 	 -3039 	 -184 	-398.51 	 110.635 	 107.59 	
-1202 	 -2376 	 -1 	-207.83 	 26.81 	 85.96 	
-1154 	 -1654 	 -352 	-31.675 	 -60.165 	 65.275 	
-945 	 -714 	 -735 	120.47 	 -140.735 	 14.7 	
-679 	 67 	 -1147 	233.835 	 -204.085 	 -53.06 	
-618 	 558 	 -1526 	309.12 	 -242.095 	 -107.94 	
-481 	 874 	 -1957 	353.115 	 -262.395 	 -142.45 	
-267 	 1092 	 -2253 	372.015 	 -266.665 	 -156.87 	
-189 	 1135 	 -2361 	371.42 	 -259.035 	 -154.945 	
-267 	 1149 	 -2253 	358.085 	 -245.21 	 -141.4 	
-391 	 1070 	 -2114 	334.915 	 -230.755 	 -120.295 	
-522 	 951 	 -1958 	306.53 	 -217.525 	 -100.66 	
-716 	 873 	 -1623 	274.75 	 -204.855 	 -88.095 	
-842 	 726 	 -1394 	240.17 	 -194.495 	 -83.51 	
-862 	 1101 	 -1361 	206.43 	 -186.27 	 -85.33 	
-915 	 279 	 -1095 	163.485 	 -171.045 	 -53.095 	
-721 	 445 	 -1166 	151.725 	 -174.195 	 -53.375 	
-996 	 474 	 -966 	112.63 	 -168.875 	 -52.045 	
-845 	 311 	 -966 	88.165 	 -167.09 	 -61.74 	
-1041 	 254 	 -755 	65.24 	 -160.23 	 -67.69 	
-883 	 271 	 -771 	52.395 	 -161.385 	 -63.665 	
-973 	 86 	 -619 	38.15 	 -158.06 	 -53.375 	
-816 	 202 	 -681 	33.11 	 -158.585 	 -47.495 	
-853 	 15 	 -611 	24.22 	 -154.84 	 -49.315 	
-751 	 171 	 -628 	24.045 	 -153.055 	 -59.885 	
-787 	 -31 	 -538 	19.81 	 -148.645 	 -72.24 	
-728 	 150 	 -573 	23.94 	 -146.195 	 -84.91 	
-786 	 -89 	 -472 	24.535 	 -142.065 	 -92.785 	
-747 	 54 	 -472 	32.375 	 -140.175 	 -97.65 	
-792 	 -180 	 -432 	37.065 	 -136.815 	 -96.39 	
-734 	 -120 	 -476 	47.985 	 -134.33 	 -90.37 	
-733 	 -261 	 -429 	56.035 	 -130.41 	 -77.525 	
-725 	 -126 	 -465 	67.235 	 -126.805 	 -61.705 	
-742 	 -121 	 -462 	73.71 	 -121.24 	 -45.885 	
-850 	 -226 	 -457 	83.72 	 -115.78 	 -35.245 	
-777 	 -152 	 -437 	91.595 	 -111.895 	 -33.355 	
-831 	 -260 	 -357 	98.35 	 -104.405 	 -38.99 	
-835 	 -321 	 -338 	106.225 	 -98.77 	 -50.505 	
-892 	 -356 	 -249 	114.555 	 -92.505 	 -64.365 	
-857 	 -351 	 -236 	122.815 	 -85.085 	 -74.725 	
-922 	 -481 	 -141 	129.64 	 -78.47 	 -79.415 	
-903 	 -600 	 -10 	137.515 	 -72.45 	 -81.025 	
-856 	 -926 	 296 	144.165 	 -62.895 	 -79.345 	
-570 	 -1553 	 863 	150.92 	 -50.05 	 -84.56 	
231 	 -2262 	 1598 	158.9 	 -29.05 	 -107.625 	
943 	 -3118 	 2170 	164.64 	 6.405 	 -144.83 	
1576 	 -2934 	 2400 	163.59 	 49.84 	 -163.275 	
1454 	 -1765 	 2531 	143.5 	 104.86 	 -105.735 	
1209 	 -142 	 2106 	93.625 	 150.01 	 43.68 	
1020 	 745 	 1400 	11.55 	 193.48 	 228.025 	
793 	 1616 	 777 	-90.02 	 243.6 	 347.585 	
465 	 2237 	 -69 	-213.605 	 302.54 	 370.93 	
-274 	 3513 	 -1199 	-342.44 	 362.95 	 358.19 	
-567 	 4363 	 -2646 	-470.995 	 412.79 	 374.465 	
-1284 	 4847 	 -4005 	-581.35 	 468.72 	 408.38 	
-1311 	 4772 	 -5230 	-667.625 	 508.55 	 422.87 	
-1209 	 3861 	 -5408 	-716.415 	 547.75 	 409.08 	
-873 	 1480 	 -3973 	-715.4 	 563.815 	 361.795 	
-1172 	 380 	 -2401 	-650.685 	 550.48 	 298.76 	
-1769 	 -1215 	 -1203 	-544.67 	 494.235 	 290.71 	
-1898 	 -2147 	 -566 	-390.67 	 404.915 	 324.1 	
-2143 	 -2417 	 -45 	-224.245 	 301.91 	 334.705 	
-2050 	 -2026 	 8 	-57.82 	 177.03 	 288.75 	
-1486 	 -1216 	 -159 	87.395 	 51.275 	 201.355 	
-767 	 -434 	 -403 	196.7 	 -57.085 	 95.55 	
-247 	 323 	 -740 	270.795 	 -136.43 	 -0.28 	
3 	 821 	 -1270 	313.88 	 -186.935 	 -58.66 	
184 	 1184 	 -1726 	332.465 	 -214.025 	 -72.835 	
287 	 1248 	 -1909 	330.365 	 -224.385 	 -55.93 	
304 	 1259 	 -1985 	313.74 	 -223.545 	 -33.005 	
244 	 1244 	 -1887 	287.98 	 -215.355 	 -19.95 	
202 	 1158 	 -1734 	254.065 	 -200.795 	 -21.84 	
81 	 1151 	 -1586 	216.79 	 -180.915 	 -32.41 	
3 	 1027 	 -1484 	175.98 	 -159.775 	 -38.745 	
-181 	 1026 	 -1421 	142.17 	 -137.445 	 -34.825 	
-232 	 932 	 -1178 	107.31 	 -115.64 	 -18.13 	
-323 	 612 	 -1121 	75.215 	 -93.975 	 -7.735 	
-256 	 429 	 -1262 	51.8 	 -75.11 	 -11.2 	
-337 	 367 	 -1233 	34.58 	 -54.25 	 -16.415 	
-394 	 315 	 -1182 	20.965 	 -35.665 	 -8.645 	
-421 	 302 	 -1172 	11.865 	 -18.865 	 11.025 	
-398 	 341 	 -1191 	5.565 	 -3.85 	 33.355 	
-451 	 383 	 -1242 	2.625 	 10.78 	 52.43 	
-463 	 397 	 -1253 	2.205 	 23.52 	 64.75 	
-450 	 326 	 -1172 	4.165 	 35.49 	 67.095 	
-416 	 146 	 -1091 	9.17 	 46.025 	 58.24 	
-406 	 43 	 -1060 	18.585 	 55.23 	 42 	
-438 	 -14 	 -1042 	30.73 	 62.51 	 26.74 	
-485 	 -54 	 -1003 	45.15 	 67.69 	 18.655 	
-457 	 -65 	 -964 	60.62 	 70.525 	 16.94 	
-384 	 -65 	 -974 	75.985 	 72.485 	 16.17 	
-355 	 -81 	 -967 	91.105 	 74.305 	 13.37 	
-326 	 -49 	 -961 	105.035 	 75.25 	 9.275 	
-299 	 -4 	 -1006 	117.635 	 75.705 	 4.935 	
-330 	 -17 	 -995 	128.66 	 76.16 	 0.98 	
-273 	 -36 	 -966 	138.145 	 75.005 	 -2.555 	
-257 	 -36 	 -973 	146.475 	 74.095 	 -6.02 	
-273 	 -74 	 -977 	153.405 	 72.415 	 -8.575 	
-292 	 -63 	 -955 	159.285 	 70.14 	 -9.975 	
-276 	 -45 	 -942 	163.8 	 66.955 	 -11.585 	
-290 	 -66 	 -937 	166.845 	 63.735 	 -14.945 	
-269 	 -97 	 -906 	168.91 	 60.025 	 -19.985 	
-246 	 -85 	 -851 	169.96 	 56.735 	 -26.32 	
-230 	 -118 	 -833 	169.75 	 53.34 	 -33.635 	
-220 	 -135 	 -842 	169.085 	 50.015 	 -42.105 	
-242 	 -136 	 -826 	167.755 	 46.62 	 -51.905 	
-277 	 -184 	 -781 	165.585 	 42.84 	 -63.385 	
-392 	 -294 	 -649 	163.59 	 38.71 	 -75.355 	
-604 	 -527 	 -414 	162.12 	 32.97 	 -83.65 	
-1027 	 -914 	 -118 	162.925 	 24.36 	 -84.805 	
-1349 	 -1392 	 291 	166.67 	 10.99 	 -82.145 	
-1730 	 -1972 	 727 	172.235 	 -4.55 	 -81.83 	
-1904 	 -1931 	 1044 	179.585 	 -24.115 	 -91.35 	
-2011 	 -1840 	 1462 	176.995 	 -42.49 	 -102.69 	
-2108 	 -1016 	 1570 	154.49 	 -59.395 	 -122.325 	
-1819 	 80 	 1285 	111.965 	 -65.31 	 -133.105 	
-1403 	 1640 	 739 	34.23 	 -61.18 	 -151.235 	
-606 	 2466 	 91 	-78.435 	 -52.955 	 -159.95 	
498 	 3103 	 -590 	-210.42 	 -28.91 	 -155.645 	
1213 	 3589 	 -1458 	-356.265 	 4.795 	 -126.35 	
1755 	 3981 	 -2562 	-500.535 	 40.81 	 -57.925 	
2146 	 4227 	 -3910 	-627.55 	 84.84 	 46.06 	
2194 	 3976 	 -5147 	-730.03 	 140.35 	 146.825 	
2270 	 2772 	 -5534 	-789.74 	 203.28 	 213.15 	
1994 	 632 	 -3949 	-785.645 	 261.59 	 242.025 	
1379 	 -458 	 -2167 	-719.46 	 292.845 	 247.555 	
354 	 -1912 	 -902 	-603.33 	 294.175 	 243.25 	
-227 	 -3080 	 -374 	-449.19 	 251.44 	 196.35 	
-763 	 -2922 	 -56 	-273.07 	 179.2 	 134.505 	
-1402 	 -2048 	 21 	-95.83 	 91.77 	 118.86 	
-1238 	 -1218 	 -265 	57.785 	 -4.41 	 109.725 	
-1029 	 -398 	 -589 	176.505 	 -89.39 	 44.66 	
-731 	 266 	 -1035 	256.97 	 -155.505 	 -53.655 	
-567 	 727 	 -1617 	306.81 	 -194.845 	 -139.615 	
-292 	 982 	 -1960 	328.545 	 -212.24 	 -189.91 	
-180 	 1158 	 -2140 	330.295 	 -211.085 	 -197.575 	
-26 	 1091 	 -2129 	315.735 	 -200.83 	 -175.84 	
121 	 1049 	 -2114 	291.55 	 -183.575 	 -147.525 	
229 	 851 	 -1988 	258.72 	 -161.525 	 -124.25 	
270 	 793 	 -1858 	223.825 	 -138.005 	 -104.51 	
200 	 690 	 -1632 	187.25 	 -114.52 	 -77.84 	
47 	 642 	 -1359 	150.675 	 -93.065 	 -48.16 	
21 	 395 	 -1351 	114.765 	 -74.62 	 -34.615 	
156 	 381 	 -1464 	84.21 	 -59.465 	 -47.04 	
-3 	 392 	 -1443 	56.07 	 -43.155 	 -68.32 	
-97 	 328 	 -1394 	31.43 	 -32.445 	 -78.33 	
-222 	 244 	 -1318 	11.585 	 -25.2 	 -73.15 	
-249 	 241 	 -1304 	-3.85 	 -22.96 	 -58.905 	
-301 	 220 	 -1291 	-15.47 	 -22.89 	 -40.67 	
-366 	 29 	 -1204 	-24.15 	 -24.815 	 -21.315 	
-457 	 -104 	 -1081 	-28.105 	 -28 	 -4.2 	
-430 	 -239 	 -1008 	-29.225 	 -32.935 	 6.265 	
-370 	 -278 	 -979 	-27.23 	 -36.855 	 7.035 	
-294 	 -296 	 -976 	-23.87 	 -40.25 	 -0.42 	
-280 	 -310 	 -956 	-18.585 	 -42.35 	 -12.25 	
-250 	 -362 	 -912 	-12.32 	 -44.555 	 -24.815 	
-253 	 -368 	 -875 	-3.885 	 -46.34 	 -35.315 	
-202 	 -270 	 -883 	5.285 	 -48.545 	 -41.615 	
-238 	 -238 	 -899 	14.63 	 -50.33 	 -42.315 	
-323 	 -303 	 -909 	24.29 	 -52.85 	 -37.485 	
-386 	 -329 	 -885 	34.93 	 -56 	 -30.765 	
-421 	 -395 	 -848 	45.85 	 -59.29 	 -27.51 	
-449 	 -479 	 -824 	57.085 	 -62.545 	 -30.66 	
-495 	 -545 	 -818 	69.335 	 -65.555 	 -39.83 	
-424 	 -609 	 -818 	81.69 	 -67.865 	 -52.255 	
-954 	 -867 	 -496 	92.995 	 -66.395 	 -67.55 	
-981 	 -1204 	 -390 	111.86 	 -73.5 	 -74.69 	
-1478 	 -1611 	 140 	128.8 	 -73.815 	 -75.53 	
-1787 	 -2289 	 600 	149.625 	 -82.67 	 -71.82 	
-1553 	 -2468 	 1140 	172.445 	 -83.615 	 -74.97 	
-1150 	 -2045 	 1442 	184.17 	 -72.66 	 -95.025 	
-983 	 -1420 	 1143 	169.05 	 -46.97 	 -136.71 	
-793 	 564 	 627 	127.33 	 -8.96 	 -186.585 	
-553 	 2073 	 -41 	39.235 	 39.62 	 -200.62 	
152 	 3098 	 -771 	-80.745 	 92.855 	 -151.935 	
1039 	 3242 	 -1608 	-224.665 	 151.41 	 -69.37 	
1543 	 3585 	 -2549 	-370.125 	 216.685 	 3.78 	
1923 	 3745 	 -3616 	-506.415 	 283.815 	 80.465 	
2105 	 3871 	 -4733 	-615.265 	 354.165 	 169.19 	
2340 	 2929 	 -5302 	-678.615 	 424.375 	 253.995 	
2301 	 536 	 -3915 	-674.625 	 487.585 	 311.185 	
1869 	 -839 	 -2267 	-597.17 	 523.005 	 334.285 	
437 	 -2673 	 -739 	-460.145 	 520.87 	 362.74 	
-521 	 -3056 	 301 	-272.615 	 458.535 	 395.29 	
-1911 	 -3014 	 806 	-81.725 	 360.85 	 404.39 	
-2178 	 -1904 	 686 	92.225 	 222.04 	 340.375 	
-2300 	 -680 	 209 	212.52 	 75.67 	 196.91 	
-1904 	 513 	 -753 	283.92 	 -59.29 	 18.34 	
-1508 	 1478 	 -1533 	312.27 	 -157.78 	 -117.53 	
-989 	 1950 	 -1930 	303.94 	 -226.415 	 -170.345 	
-461 	 1955 	 -1967 	273 	 -268.03 	 -156.31 	
279 	 1658 	 -1879 	229.88 	 -289.52 	 -129.535 	
774 	 1289 	 -1692 	181.125 	 -288.645 	 -125.755 	
1072 	 1075 	 -1510 	133.525 	 -271.285 	 -133.49 	
1169 	 913 	 -1376 	90.055 	 -242.095 	 -123.13 	
1188 	 727 	 -1215 	51.45 	 -208.25 	 -89.635 	
1058 	 546 	 -1098 	16.835 	 -171.605 	 -49.945 	
874 	 240 	 -1027 	-12.32 	 -134.82 	 -27.265 	
798 	 110 	 -1016 	-33.565 	 -103.18 	 -27.23 	
463 	 64 	 -976 	-49.14 	 -73.045 	 -26.495 	
268 	 48 	 -994 	-59.64 	 -51.73 	 -10.955 	
90 	 21 	 -987 	-66.15 	 -34.755 	 10.745 	
-37 	 42 	 -1019 	-69.335 	 -22.925 	 26.25 	
-116 	 55 	 -1049 	-69.755 	 -14.91 	 30.835 	
-111 	 20 	 -1030 	-68.25 	 -9.415 	 23.975 	
-91 	 3 	 -1013 	-64.4 	 -5.88 	 9.52 	
-102 	 24 	 -1007 	-58.31 	 -4.515 	 -3.605 	
-144 	 41 	 -989 	-50.365 	 -5.39 	 -10.22 	
-138 	 -22 	 -964 	-41.58 	 -8.575 	 -14.245 	
-139 	 -58 	 -924 	-31.325 	 -12.53 	 -20.3 	
-138 	 -47 	 -876 	-20.58 	 -17.57 	 -25.025 	
-154 	 3 	 -858 	-9.8 	 -23.59 	 -22.33 	
-154 	 26 	 -843 	0 	 -30.03 	 -13.09 	
-159 	 58 	 -816 	8.47 	 -35.665 	 -5.25 	
-119 	 87 	 -875 	15.435 	 -40.775 	 -6.09 	
-96 	 134 	 -898 	20.86 	 -44.31 	 -16.065 	
-106 	 159 	 -902 	24.15 	 -46.62 	 -28.805 	
-111 	 216 	 -943 	26.355 	 -48.335 	 -38.08 	
-122 	 261 	 -978 	27.16 	 -49.315 	 -41.16 	
-105 	 283 	 -1024 	26.915 	 -50.26 	 -39.27 	
-107 	 293 	 -1029 	26.075 	 -50.365 	 -34.545 	
-139 	 267 	 -974 	24.36 	 -49.84 	 -29.26 	
-144 	 228 	 -967 	22.12 	 -48.965 	 -27.685 	
-70 	 228 	 -1018 	19.88 	 -47.25 	 -33.67 	
-48 	 181 	 -1043 	17.36 	 -43.925 	 -45.815 	
-36 	 201 	 -1053 	15.05 	 -40.145 	 -57.995 	
-77 	 228 	 -1058 	12.635 	 -36.085 	 -63.735 	
-114 	 203 	 -1061 	10.36 	 -33.215 	 -60.41 	
-125 	 191 	 -1047 	8.785 	 -30.905 	 -50.365 	
-128 	 135 	 -1034 	7.245 	 -29.295 	 -38.395 	
-124 	 103 	 -1025 	6.51 	 -27.895 	 -28.385 	
-135 	 113 	 -1011 	5.6 	 -26.04 	 -22.54 	
-154 	 91 	 -1033 	4.34 	 -24.185 	 -22.61 	
-102 	 40 	 -1075 	3.115 	 -22.015 	 -30.625 	
-66 	 28 	 -1082 	1.785 	 -18.83 	 -44.17 	
