STEVAL-MKI197V1 (LSM6DSOX)

A_X [mg] 	 A_Y [mg] 	 A_Z [mg] 	G_X [dps] 	 G_Y [dps] 	 G_Z [dps] 	
-211 	 -903 	 -592 	22.61 	 -29.26 	 -9.555 	
-219 	 -883 	 -583 	22.19 	 -30.695 	 -16.065 	
-211 	 -846 	 -571 	21.595 	 -32.235 	 -19.95 	
-197 	 -829 	 -563 	20.58 	 -33.495 	 -19.705 	
-184 	 -796 	 -552 	19.495 	 -34.615 	 -15.82 	
-169 	 -783 	 -538 	17.92 	 -35.455 	 -10.08 	
-173 	 -762 	 -523 	16.135 	 -35.91 	 -4.13 	
-175 	 -746 	 -501 	14.105 	 -36.225 	 1.75 	
-187 	 -750 	 -469 	11.9 	 -36.365 	 6.51 	
-184 	 -762 	 -445 	9.59 	 -36.4 	 8.785 	
-189 	 -750 	 -425 	7.315 	 -36.225 	 7.665 	
-218 	 -744 	 -417 	4.655 	 -35.805 	 3.605 	
-220 	 -755 	 -426 	1.75 	 -35.49 	 -2.31 	
-217 	 -772 	 -425 	-1.085 	 -34.965 	 -9.065 	
-200 	 -768 	 -422 	-4.025 	 -34.475 	 -15.645 	
-179 	 -749 	 -411 	-7.21 	 -33.53 	 -21.385 	
-195 	 -788 	 -377 	-10.815 	 -32.585 	 -26.635 	
-177 	 -775 	 -370 	-14.035 	 -31.78 	 -31.92 	
-234 	 -785 	 -349 	-17.71 	 -30.45 	 -37.415 	
-237 	 -770 	 -355 	-21.35 	 -29.89 	 -45.395 	
-266 	 -771 	 -347 	-25.27 	 -28.56 	 -58.415 	
-241 	 -814 	 -335 	-29.225 	 -28 	 -76.615 	
-244 	 -666 	 -340 	-33.04 	 -26.95 	 -93.835 	
-224 	 -674 	 -366 	-38.71 	 -26.53 	 -100.59 	
-216 	 -554 	 -394 	-42.7 	 -26.215 	 -92.295 	
-201 	 -588 	 -373 	-48.825 	 -26.495 	 -69.51 	
-224 	 -539 	 -380 	-53.83 	 -26.67 	 -37.205 	
-256 	 -578 	 -380 	-59.815 	 -27.02 	 -1.855 	
-283 	 -611 	 -388 	-65.03 	 -27.23 	 28.665 	
-294 	 -726 	 -383 	-70.35 	 -26.775 	 47.285 	
-220 	 -790 	 -424 	-74.725 	 -25.76 	 50.61 	
-124 	 -827 	 -467 	-78.96 	 -23.1 	 41.335 	
-75 	 -773 	 -493 	-82.845 	 -19.705 	 26.845 	
-79 	 -569 	 -542 	-87.71 	 -15.435 	 16.1 	
-171 	 -526 	 -566 	-94.185 	 -11.865 	 16.765 	
-203 	 -478 	 -595 	-101.185 	 -9.275 	 30.275 	
-287 	 -476 	 -590 	-107.8 	 -6.23 	 54.25 	
-250 	 -582 	 -619 	-114.345 	 -4.165 	 81.41 	
-221 	 -670 	 -654 	-119.245 	 -0.35 	 101.29 	
-177 	 -772 	 -687 	-122.57 	 4.235 	 107.52 	
-199 	 -852 	 -677 	-123.9 	 9.87 	 101.465 	
-199 	 -887 	 -663 	-123.69 	 14.35 	 87.185 	
-260 	 -792 	 -650 	-121.45 	 19.145 	 69.09 	
-293 	 -737 	 -616 	-119.175 	 21.35 	 54.11 	
-331 	 -701 	 -582 	-115.325 	 22.96 	 46.76 	
-322 	 -749 	 -523 	-110.74 	 23.38 	 46.13 	
-298 	 -758 	 -560 	-104.37 	 23.345 	 48.685 	
-266 	 -757 	 -603 	-96.95 	 23.17 	 50.925 	
-315 	 -752 	 -599 	-89.11 	 23.905 	 51.275 	
-297 	 -752 	 -646 	-81.34 	 22.855 	 48.3 	
-304 	 -715 	 -713 	-73.745 	 22.645 	 39.48 	
-318 	 -688 	 -726 	-66.745 	 22.47 	 26.11 	
-300 	 -638 	 -732 	-61.005 	 21.84 	 11.725 	
-295 	 -610 	 -750 	-56.14 	 21.42 	 -0.875 	
-273 	 -583 	 -779 	-52.605 	 21.49 	 -10.36 	
-245 	 -462 	 -809 	-49.35 	 21.07 	 -16.415 	
-246 	 -447 	 -826 	-48.23 	 21.315 	 -16.345 	
-263 	 -400 	 -843 	-47.215 	 21.07 	 -8.365 	
-275 	 -394 	 -850 	-46.97 	 20.825 	 5.81 	
-266 	 -401 	 -841 	-46.585 	 20.37 	 20.895 	
-233 	 -448 	 -834 	-46.62 	 20.44 	 31.15 	
-206 	 -475 	 -852 	-46.445 	 20.965 	 33.25 	
-207 	 -485 	 -884 	-46.27 	 21.945 	 28.525 	
-241 	 -468 	 -908 	-46.13 	 22.96 	 21 	
-274 	 -421 	 -932 	-46.095 	 23.38 	 14.84 	
-315 	 -386 	 -957 	-45.64 	 22.96 	 13.58 	
-323 	 -411 	 -944 	-45.01 	 22.05 	 17.395 	
-305 	 -458 	 -933 	-43.505 	 20.58 	 21.98 	
-298 	 -485 	 -936 	-40.81 	 19.005 	 25.48 	
-314 	 -495 	 -944 	-37.345 	 17.43 	 28.665 	
-319 	 -503 	 -946 	-33.32 	 15.61 	 30.59 	
-324 	 -493 	 -968 	-29.33 	 13.685 	 29.75 	
-335 	 -485 	 -996 	-24.99 	 11.725 	 25.62 	
-333 	 -511 	 -999 	-20.615 	 9.835 	 18.97 	
-304 	 -521 	 -996 	-16.065 	 7.805 	 10.255 	
-291 	 -519 	 -1003 	-11.235 	 6.125 	 0.7 	
-285 	 -494 	 -1010 	-6.23 	 4.515 	 -6.335 	
-284 	 -477 	 -1009 	-1.365 	 2.87 	 -7.91 	
-256 	 -445 	 -1018 	3.43 	 1.05 	 -4.48 	
-237 	 -433 	 -1024 	7.805 	 -0.35 	 1.925 	
-233 	 -418 	 -1024 	11.97 	 -1.75 	 9.73 	
-261 	 -429 	 -1018 	15.68 	 -2.94 	 17.64 	
-269 	 -454 	 -1017 	18.935 	 -4.235 	 22.715 	
-261 	 -474 	 -1017 	21.91 	 -5.285 	 21.14 	
-246 	 -480 	 -1028 	24.5 	 -6.055 	 12.18 	
-239 	 -474 	 -1023 	26.74 	 -6.37 	 -0.665 	
-247 	 -443 	 -1005 	28.35 	 -6.44 	 -12.075 	
-257 	 -424 	 -996 	29.33 	 -6.86 	 -17.78 	
-267 	 -400 	 -987 	30.1 	 -7.42 	 -17.22 	
-266 	 -398 	 -972 	30.45 	 -8.19 	 -13.09 	
-261 	 -408 	 -957 	30.73 	 -9.03 	 -8.47 	
-262 	 -421 	 -942 	30.905 	 -9.8 	 -5.005 	
-267 	 -440 	 -931 	31.29 	 -10.57 	 -3.22 	
-273 	 -465 	 -910 	31.815 	 -11.34 	 -3.29 	
-273 	 -478 	 -895 	32.445 	 -12.04 	 -5.67 	
-278 	 -484 	 -885 	33.32 	 -12.845 	 -9.66 	
-290 	 -484 	 -880 	34.16 	 -13.58 	 -13.86 	
-296 	 -482 	 -877 	35.245 	 -14.63 	 -17.01 	
-296 	 -492 	 -864 	36.435 	 -15.68 	 -18.865 	
-286 	 -504 	 -866 	37.59 	 -16.8 	 -19.915 	
-284 	 -490 	 -864 	39.2 	 -17.815 	 -20.58 	
-277 	 -498 	 -854 	40.6 	 -18.795 	 -20.335 	
-278 	 -485 	 -862 	42.21 	 -19.67 	 -18.865 	
-274 	 -480 	 -862 	43.855 	 -20.51 	 -15.995 	
-269 	 -498 	 -863 	45.5 	 -21.28 	 -12.46 	
-264 	 -502 	 -868 	47.495 	 -21.98 	 -9.205 	
-275 	 -523 	 -868 	49.595 	 -22.54 	 -6.405 	
-291 	 -545 	 -870 	51.94 	 -23.205 	 -4.095 	
-296 	 -548 	 -882 	54.6 	 -23.94 	 -3.71 	
-303 	 -579 	 -892 	57.295 	 -24.395 	 -6.65 	
-298 	 -607 	 -878 	60.41 	 -24.78 	 -13.055 	
-290 	 -629 	 -867 	63.42 	 -24.78 	 -21.455 	
-284 	 -637 	 -861 	66.57 	 -24.5 	 -29.155 	
-271 	 -599 	 -842 	69.79 	 -24.08 	 -33.74 	
-273 	 -606 	 -825 	72.17 	 -23.415 	 -33.88 	
-263 	 -602 	 -808 	74.305 	 -22.89 	 -29.785 	
-254 	 -613 	 -787 	75.915 	 -22.085 	 -23.555 	
-255 	 -627 	 -764 	76.86 	 -21.175 	 -17.675 	
-259 	 -646 	 -744 	77.21 	 -20.195 	 -14.245 	
-243 	 -660 	 -712 	76.79 	 -18.795 	 -14.98 	
-233 	 -681 	 -701 	75.67 	 -17.045 	 -20.16 	
-213 	 -679 	 -679 	74.06 	 -14.98 	 -28.77 	
-198 	 -692 	 -659 	71.54 	 -12.32 	 -37.38 	
-198 	 -662 	 -626 	68.565 	 -9.695 	 -41.79 	
-196 	 -652 	 -608 	64.645 	 -7.35 	 -39.445 	
-200 	 -628 	 -584 	60.41 	 -5.18 	 -31.255 	
-198 	 -628 	 -569 	55.195 	 -3.36 	 -19.845 	
-198 	 -625 	 -562 	49.77 	 -1.75 	 -9.065 	
-205 	 -634 	 -556 	44.1 	 -0.175 	 -1.75 	
-216 	 -672 	 -535 	38.605 	 1.155 	 0.805 	
-221 	 -719 	 -517 	33.39 	 2.345 	 -1.61 	
-222 	 -752 	 -510 	29.05 	 3.29 	 -7.945 	
-225 	 -757 	 -501 	25.34 	 4.165 	 -15.12 	
-225 	 -753 	 -500 	21.945 	 4.55 	 -19.215 	
-221 	 -730 	 -502 	19.005 	 4.515 	 -18.025 	
-221 	 -712 	 -501 	16.205 	 4.165 	 -12.18 	
-216 	 -717 	 -498 	13.3 	 3.71 	 -4.41 	
-217 	 -721 	 -502 	10.71 	 3.08 	 2.205 	
-226 	 -743 	 -506 	8.155 	 2.38 	 5.39 	
-237 	 -759 	 -509 	6.02 	 1.645 	 4.655 	
-245 	 -773 	 -510 	3.955 	 0.91 	 0.875 	
-247 	 -770 	 -521 	2.135 	 -0.035 	 -4.06 	
-244 	 -753 	 -537 	0.35 	 -1.085 	 -8.33 	
-243 	 -730 	 -547 	-1.365 	 -2.24 	 -10.535 	
-243 	 -718 	 -555 	-3.22 	 -3.43 	 -9.94 	
-240 	 -712 	 -560 	-4.935 	 -4.62 	 -7.35 	
-235 	 -732 	 -559 	-6.3 	 -5.775 	 -4.865 	
-221 	 -760 	 -556 	-7.28 	 -6.79 	 -4.025 	
-217 	 -776 	 -557 	-7.665 	 -7.63 	 -4.97 	
-217 	 -770 	 -563 	-7.7 	 -8.365 	 -6.265 	
-222 	 -768 	 -570 	-7.49 	 -9.1 	 -6.37 	
-217 	 -762 	 -580 	-7.245 	 -9.835 	 -4.865 	
-219 	 -750 	 -594 	-7.07 	 -10.465 	 -2.135 	
-219 	 -747 	 -600 	-7.035 	 -10.955 	 0.735 	
-212 	 -752 	 -603 	-7.105 	 -11.34 	 2.205 	
-212 	 -758 	 -606 	-6.965 	 -11.41 	 1.61 	
-211 	 -778 	 -601 	-6.93 	 -11.41 	 -0.665 	
-217 	 -773 	 -603 	-6.615 	 -11.235 	 -3.36 	
-229 	 -762 	 -606 	-6.195 	 -11.13 	 -5.04 	
-235 	 -745 	 -608 	-5.915 	 -11.235 	 -4.41 	
-238 	 -733 	 -609 	-5.81 	 -11.235 	 -1.295 	
-239 	 -735 	 -611 	-5.775 	 -11.27 	 3.01 	
-234 	 -737 	 -616 	-5.81 	 -11.235 	 6.265 	
-235 	 -750 	 -615 	-5.81 	 -10.955 	 6.895 	
-223 	 -770 	 -611 	-5.775 	 -10.57 	 4.935 	
-225 	 -778 	 -608 	-5.46 	 -9.87 	 1.855 	
-226 	 -777 	 -600 	-5.075 	 -9.275 	 -0.56 	
-235 	 -770 	 -602 	-4.515 	 -8.715 	 -1.085 	
-235 	 -765 	 -606 	-4.165 	 -8.225 	 -0.07 	
-235 	 -755 	 -612 	-3.955 	 -7.735 	 1.085 	
-245 	 -741 	 -618 	-4.06 	 -7.175 	 2.065 	
-255 	 -725 	 -622 	-4.27 	 -6.755 	 2.975 	
-268 	 -725 	 -626 	-4.76 	 -6.335 	 3.675 	
-273 	 -731 	 -626 	-5.04 	 -6.125 	 3.57 	
-276 	 -745 	 -621 	-5.355 	 -5.915 	 2.905 	
-279 	 -742 	 -622 	-5.46 	 -5.845 	 2.45 	
-282 	 -736 	 -625 	-5.425 	 -5.845 	 2.8 	
-283 	 -736 	 -627 	-5.46 	 -5.81 	 3.71 	
-278 	 -727 	 -629 	-5.53 	 -5.88 	 4.34 	
-279 	 -722 	 -631 	-5.67 	 -5.88 	 4.235 	
-283 	 -720 	 -632 	-5.915 	 -5.845 	 3.535 	
-279 	 -726 	 -633 	-5.915 	 -5.81 	 2.24 	
-273 	 -748 	 -626 	-5.81 	 -5.74 	 0.42 	
-268 	 -748 	 -623 	-5.39 	 -5.705 	 -1.33 	
-269 	 -741 	 -620 	-4.69 	 -5.635 	 -1.855 	
-269 	 -737 	 -619 	-3.955 	 -5.635 	 -1.015 	
-266 	 -733 	 -620 	-3.22 	 -5.705 	 0.875 	
-269 	 -732 	 -621 	-2.59 	 -5.705 	 2.905 	
-271 	 -730 	 -626 	-2.1 	 -5.775 	 4.2 	
-279 	 -729 	 -633 	-1.575 	 -5.81 	 4.27 	
-280 	 -739 	 -633 	-1.015 	 -6.02 	 2.87 	
-281 	 -750 	 -630 	-0.525 	 -6.055 	 0.525 	
-283 	 -753 	 -630 	0.14 	 -6.265 	 -1.89 	
-281 	 -747 	 -631 	0.84 	 -6.44 	 -3.29 	
-280 	 -745 	 -637 	1.435 	 -6.65 	 -2.835 	
-282 	 -723 	 -643 	1.855 	 -6.79 	 -0.7 	
-289 	 -716 	 -646 	1.995 	 -6.93 	 2.135 	
-289 	 -716 	 -646 	1.855 	 -7.105 	 4.305 	
-289 	 -729 	 -642 	1.645 	 -7.105 	 4.48 	
-291 	 -740 	 -636 	1.54 	 -7.035 	 2.38 	
-293 	 -751 	 -626 	1.435 	 -7 	 -0.875 	
-291 	 -754 	 -625 	1.47 	 -7.035 	 -4.235 	
-287 	 -742 	 -624 	1.61 	 -6.93 	 -6.265 	
-285 	 -730 	 -630 	1.575 	 -6.93 	 -6.055 	
-279 	 -725 	 -636 	1.47 	 -6.895 	 -3.955 	
-283 	 -726 	 -638 	1.155 	 -6.685 	 -1.26 	
-281 	 -721 	 -640 	0.805 	 -6.51 	 0.875 	
-287 	 -729 	 -636 	0.455 	 -6.3 	 1.61 	
-287 	 -731 	 -630 	0.21 	 -6.09 	 0.805 	
-294 	 -740 	 -622 	0.035 	 -5.95 	 -0.875 	
-295 	 -744 	 -619 	0.21 	 -5.985 	 -2.485 	
-293 	 -747 	 -621 	0.595 	 -6.055 	 -3.815 	
-290 	 -750 	 -621 	1.155 	 -6.125 	 -4.62 	
-285 	 -751 	 -621 	1.855 	 -6.335 	 -4.41 	
-280 	 -743 	 -625 	2.695 	 -6.475 	 -2.975 	
-285 	 -732 	 -630 	3.5 	 -6.65 	 -0.735 	
-280 	 -737 	 -631 	4.305 	 -6.86 	 1.085 	
-282 	 -746 	 -629 	4.9 	 -6.895 	 1.19 	
-281 	 -748 	 -631 	5.705 	 -7.035 	 -0.84 	
-285 	 -755 	 -630 	6.545 	 -7.14 	 -3.885 	
-284 	 -755 	 -629 	7.595 	 -7.35 	 -6.615 	
-282 	 -761 	 -626 	8.61 	 -7.63 	 -8.085 	
-279 	 -755 	 -625 	9.73 	 -7.945 	 -7.595 	
-281 	 -739 	 -632 	10.64 	 -8.19 	 -5.04 	
-276 	 -728 	 -635 	11.48 	 -8.54 	 -1.4 	
-265 	 -739 	 -638 	11.83 	 -8.715 	 1.61 	
-257 	 -741 	 -638 	12.32 	 -8.715 	 2.345 	
-257 	 -762 	 -636 	12.565 	 -8.435 	 0.805 	
-254 	 -771 	 -634 	13.02 	 -8.225 	 -1.925 	
-256 	 -780 	 -631 	13.545 	 -7.875 	 -4.48 	
-254 	 -768 	 -629 	14.245 	 -7.7 	 -5.635 	
-253 	 -759 	 -634 	14.735 	 -7.56 	 -4.97 	
-255 	 -755 	 -634 	15.435 	 -7.595 	 -3.15 	
-252 	 -776 	 -629 	15.995 	 -7.595 	 -1.33 	
-247 	 -780 	 -630 	16.905 	 -7.7 	 -0.21 	
-252 	 -784 	 -629 	17.885 	 -7.77 	 0.42 	
-254 	 -795 	 -634 	19.005 	 -8.085 	 1.12 	
-251 	 -803 	 -641 	20.125 	 -8.4 	 1.75 	
-253 	 -814 	 -649 	21.525 	 -8.89 	 2.24 	
-264 	 -822 	 -655 	23.065 	 -9.45 	 3.01 	
-274 	 -829 	 -662 	24.85 	 -10.255 	 4.06 	
-278 	 -862 	 -662 	26.915 	 -11.13 	 4.41 	
-283 	 -897 	 -655 	29.365 	 -12.005 	 3.465 	
-282 	 -904 	 -660 	32.655 	 -13.23 	 1.785 	
-283 	 -907 	 -671 	36.225 	 -14.28 	 0.28 	
-289 	 -918 	 -674 	40.46 	 -15.435 	 -0.77 	
-284 	 -932 	 -677 	44.905 	 -16.765 	 -1.4 	
-294 	 -945 	 -676 	50.12 	 -18.06 	 -1.785 	
-289 	 -960 	 -678 	55.79 	 -19.6 	 -2.275 	
-280 	 -980 	 -690 	62.055 	 -21 	 -3.78 	
-268 	 -1019 	 -683 	69.02 	 -22.295 	 -7.28 	
-256 	 -1070 	 -669 	76.615 	 -23.415 	 -12.985 	
-247 	 -1127 	 -655 	85.12 	 -24.15 	 -20.37 	
-240 	 -1157 	 -631 	94.43 	 -24.745 	 -28.84 	
-218 	 -1163 	 -596 	104.125 	 -25.095 	 -37.135 	
-186 	 -1185 	 -555 	113.89 	 -24.885 	 -42.525 	
-136 	 -1197 	 -502 	123.445 	 -24.01 	 -42.525 	
-112 	 -1176 	 -388 	132.545 	 -22.435 	 -38.045 	
-178 	 -1097 	 -62 	140 	 -20.09 	 -33.18 	
-418 	 -1075 	 545 	143.185 	 -17.71 	 -31.045 	
-963 	 -1328 	 1420 	139.055 	 -17.01 	 -31.08 	
-1309 	 -1521 	 2758 	124.005 	 -19.495 	 -40.67 	
-1296 	 -1590 	 4137 	89.005 	 -20.58 	 -68.39 	
-557 	 -308 	 4888 	20.125 	 -12.495 	 -95.62 	
-45 	 680 	 4689 	-93.31 	 6.755 	 -76.09 	
807 	 1758 	 3974 	-245.875 	 30.905 	 -11.27 	
1249 	 2561 	 2805 	-436.31 	 76.685 	 61.04 	
1491 	 3337 	 951 	-648.095 	 130.13 	 119.665 	
1462 	 4109 	 -1319 	-856.17 	 190.575 	 184.45 	
1199 	 4534 	 -3673 	-1036.38 	 256.41 	 262.36 	
1225 	 3996 	 -5395 	-1136.87 	 320.53 	 313.215 	
658 	 1967 	 -5421 	-1146.74 	 378.175 	 299.25 	
-319 	 99 	 -3928 	-1145.2 	 391.79 	 237.23 	
-1158 	 -1151 	 -1712 	-1079.96 	 357.105 	 197.995 	
-904 	 -1970 	 -322 	-906.99 	 291.83 	 159.215 	
-655 	 -1988 	 369 	-682.185 	 205.065 	 48.265 	
-208 	 -962 	 185 	-442.505 	 100.66 	 -74.515 	
414 	 715 	 -216 	-212.45 	 9.975 	 -111.055 	
818 	 1734 	 -907 	-29.505 	 -54.6 	 -75.25 	
986 	 2472 	 -1728 	111.615 	 -98.84 	 -11.095 	
930 	 2400 	 -2458 	202.475 	 -123.515 	 30.765 	
699 	 2124 	 -2891 	255.08 	 -135.065 	 28.7 	
406 	 1855 	 -2919 	281.435 	 -134.89 	 14.42 	
246 	 1645 	 -2701 	288.085 	 -128.905 	 12.145 	
121 	 1489 	 -2454 	279.86 	 -116.515 	 16.73 	
-22 	 1392 	 -2328 	262.115 	 -100.03 	 17.185 	
-8 	 1311 	 -2301 	240.415 	 -84.385 	 5.67 	
-162 	 1256 	 -2099 	216.055 	 -65.625 	 -5.25 	
-335 	 1082 	 -1901 	189.49 	 -49.07 	 2.94 	
-482 	 911 	 -1697 	167.86 	 -36.715 	 26.88 	
-532 	 662 	 -1562 	151.2 	 -29.855 	 48.615 	
-587 	 505 	 -1410 	139.23 	 -24.815 	 57.995 	
-725 	 287 	 -1317 	132.02 	 -21.56 	 54.915 	
-664 	 192 	 -1259 	132.755 	 -23.905 	 39.165 	
-718 	 4 	 -1156 	134.89 	 -24.43 	 16.87 	
-712 	 -15 	 -1117 	140.63 	 -26.565 	 -3.5 	
-678 	 -72 	 -1094 	147.175 	 -29.19 	 -16.205 	
-627 	 -92 	 -1060 	153.475 	 -31.675 	 -22.33 	
-548 	 -98 	 -1035 	159.215 	 -34.265 	 -25.025 	
-458 	 -130 	 -1011 	162.995 	 -36.33 	 -25.305 	
-362 	 -111 	 -978 	166.39 	 -38.01 	 -22.75 	
-315 	 -115 	 -912 	168.56 	 -39.41 	 -17.71 	
-271 	 -139 	 -861 	169.575 	 -40.845 	 -14.595 	
-196 	 -193 	 -835 	169.96 	 -41.58 	 -20.755 	
-95 	 -199 	 -852 	170.275 	 -41.755 	 -35.805 	
-83 	 -150 	 -861 	170.765 	 -40.81 	 -48.545 	
-63 	 -148 	 -835 	170.17 	 -40.39 	 -49.245 	
-73 	 -195 	 -827 	168.77 	 -40.39 	 -37.555 	
-87 	 -228 	 -850 	167.615 	 -41.825 	 -19.915 	
-116 	 -281 	 -843 	166.39 	 -44.03 	 -3.885 	
-160 	 -351 	 -818 	164.64 	 -47.145 	 5.635 	
-186 	 -384 	 -808 	163.065 	 -50.855 	 6.545 	
-246 	 -375 	 -797 	162.19 	 -54.67 	 -1.575 	
-289 	 -458 	 -777 	160.685 	 -58.415 	 -17.57 	
-253 	 -532 	 -781 	160.16 	 -61.74 	 -41.615 	
-214 	 -552 	 -797 	160.895 	 -63.63 	 -70.385 	
-225 	 -561 	 -770 	162.4 	 -64.575 	 -94.465 	
-242 	 -639 	 -747 	164.22 	 -65.17 	 -106.4 	
-222 	 -650 	 -734 	167.615 	 -65.8 	 -106.75 	
-172 	 -696 	 -729 	171.22 	 -66.395 	 -100.24 	
-113 	 -714 	 -733 	175.245 	 -66.43 	 -91.42 	
-61 	 -775 	 -709 	179.585 	 -66.08 	 -82.6 	
-44 	 -876 	 -678 	184.135 	 -65.1 	 -74.025 	
-11 	 -966 	 -631 	190.12 	 -64.12 	 -67.025 	
6 	 -1098 	 -524 	195.895 	 -62.09 	 -63.49 	
109 	 -1258 	 -374 	201.88 	 -59.465 	 -64.645 	
70 	 -1129 	 86 	206.92 	 -54.915 	 -64.505 	
-315 	 -1286 	 682 	202.3 	 -51.1 	 -44.345 	
-867 	 -1337 	 1448 	187.075 	 -50.575 	 2.24 	
-1881 	 -1308 	 2692 	151.27 	 -52.815 	 52.71 	
-2241 	 -1289 	 3627 	86.905 	 -58.38 	 54.67 	
-1658 	 -530 	 4076 	-8.155 	 -49.315 	 -25.62 	
-902 	 348 	 3988 	-141.225 	 -30.905 	 -116.935 	
-132 	 1423 	 3226 	-305.305 	 -4.62 	 -114.73 	
332 	 2120 	 1936 	-494.725 	 35.49 	 -13.72 	
969 	 2426 	 121 	-689.255 	 86.135 	 101.045 	
1407 	 2930 	 -1846 	-865.515 	 156.695 	 169.47 	
1897 	 3249 	 -3745 	-1009.09 	 229.635 	 212.765 	
1910 	 2330 	 -4791 	-1098.69 	 306.565 	 252 	
1444 	 630 	 -4223 	-1105.65 	 364.035 	 252.7 	
724 	 -416 	 -2335 	-1035.9 	 381.745 	 201.215 	
68 	 -1863 	 -903 	-905.975 	 354.13 	 117.67 	
396 	 -1492 	 -96 	-704.13 	 269.395 	 -2.345 	
-116 	 -422 	 406 	-487.305 	 175.7 	 -31.465 	
411 	 164 	 -75 	-277.935 	 78.575 	 56.525 	
146 	 930 	 -469 	-83.895 	 3.535 	 140.525 	
292 	 1327 	 -1086 	64.75 	 -75.985 	 130.305 	
257 	 1747 	 -1747 	168.945 	 -133.14 	 55.3 	
19 	 1743 	 -2288 	225.96 	 -167.58 	 -27.685 	
-162 	 1919 	 -2401 	257.11 	 -183.12 	 -73.045 	
-156 	 1619 	 -2294 	259.875 	 -182.805 	 -93.17 	
210 	 1379 	 -2225 	252.28 	 -173.25 	 -113.4 	
195 	 1189 	 -2030 	238.14 	 -150.535 	 -119.35 	
251 	 1000 	 -1850 	222.25 	 -126.245 	 -99.085 	
165 	 730 	 -1621 	207.48 	 -100.24 	 -66.535 	
77 	 469 	 -1446 	193.795 	 -77.385 	 -37.065 	
-78 	 298 	 -1378 	183.925 	 -56.875 	 -13.825 	
-136 	 153 	 -1394 	177.415 	 -39.06 	 1.015 	
-151 	 145 	 -1475 	173.845 	 -25.235 	 4.585 	
-279 	 138 	 -1491 	171.325 	 -13.02 	 1.925 	
-399 	 89 	 -1473 	168.875 	 -4.025 	 0.42 	
-474 	 31 	 -1461 	167.755 	 2.135 	 0.525 	
-513 	 -1 	 -1439 	169.68 	 4.83 	 -0.455 	
-536 	 -81 	 -1353 	172.725 	 5.18 	 -3.395 	
-568 	 -156 	 -1265 	176.645 	 3.745 	 -6.475 	
-544 	 -198 	 -1220 	182.455 	 -0.175 	 -2.66 	
-475 	 -230 	 -1180 	188.79 	 -5.25 	 9.66 	
-377 	 -298 	 -1099 	194.95 	 -10.815 	 19.46 	
-244 	 -439 	 -1044 	198.905 	 -16.275 	 16.415 	
-173 	 -434 	 -992 	203.14 	 -19.985 	 3.57 	
-143 	 -432 	 -924 	205.345 	 -23.275 	 -6.405 	
-119 	 -441 	 -878 	205.905 	 -26.565 	 -6.335 	
-114 	 -421 	 -830 	205.275 	 -29.855 	 0.245 	
-105 	 -390 	 -799 	202.79 	 -33.46 	 6.93 	
-115 	 -347 	 -768 	198.625 	 -36.75 	 11.095 	
-118 	 -288 	 -718 	192.71 	 -40.355 	 14.42 	
-175 	 -318 	 -699 	184.59 	 -43.68 	 21 	
-193 	 -262 	 -712 	176.26 	 -47.6 	 28.175 	
-194 	 -337 	 -696 	166.915 	 -51.135 	 27.825 	
-173 	 -446 	 -683 	156.87 	 -53.97 	 15.995 	
-182 	 -485 	 -675 	147.875 	 -55.72 	 -2.135 	
-210 	 -496 	 -665 	140.07 	 -57.54 	 -16.94 	
-245 	 -512 	 -635 	133.385 	 -59.185 	 -22.435 	
-256 	 -518 	 -586 	127.505 	 -61.53 	 -19.565 	
-250 	 -551 	 -567 	122.36 	 -64.015 	 -11.69 	
-245 	 -569 	 -559 	117.845 	 -66.15 	 -1.68 	
-236 	 -609 	 -562 	113.75 	 -68.25 	 6.545 	
-225 	 -635 	 -556 	110.215 	 -69.545 	 8.155 	
-222 	 -695 	 -536 	106.82 	 -69.965 	 2.415 	
-216 	 -790 	 -500 	104.58 	 -69.965 	 -8.015 	
-233 	 -896 	 -447 	103.775 	 -69.23 	 -19.74 	
-240 	 -952 	 -408 	104.545 	 -68.355 	 -30.87 	
-253 	 -987 	 -379 	106.715 	 -67.2 	 -39.62 	
-263 	 -986 	 -337 	109.515 	 -65.8 	 -43.155 	
-300 	 -953 	 -275 	112.07 	 -64.54 	 -40.425 	
-341 	 -904 	 -132 	113.96 	 -63.42 	 -32.305 	
-621 	 -942 	 201 	112.805 	 -61.565 	 -17.955 	
-1150 	 -831 	 885 	108.185 	 -62.37 	 -0.035 	
-1939 	 -978 	 2019 	93.38 	 -65.45 	 21.63 	
-2676 	 -1444 	 3380 	59.29 	 -70.175 	 47.075 	
-1967 	 -967 	 3819 	-4.515 	 -70.945 	 34.86 	
-1090 	 -138 	 3478 	-103.18 	 -45.325 	 -40.635 	
-271 	 947 	 2987 	-234.045 	 -13.44 	 -114.765 	
444 	 1899 	 1972 	-404.985 	 37.66 	 -93.45 	
895 	 2618 	 360 	-596.785 	 98.77 	 18.725 	
1599 	 2950 	 -1517 	-781.515 	 170.38 	 132.825 	
1735 	 3032 	 -3204 	-942.935 	 257.705 	 191.45 	
2013 	 2706 	 -4605 	-1060.43 	 337.4 	 202.965 	
1374 	 976 	 -4697 	-1103.69 	 398.895 	 179.48 	
581 	 -319 	 -2897 	-1057.42 	 408.66 	 123.34 	
-239 	 -1756 	 -954 	-955.71 	 375.725 	 64.96 	
-110 	 -1573 	 -541 	-777.56 	 287.49 	 24.36 	
-296 	 -986 	 -52 	-559.895 	 189.525 	 56.21 	
-217 	 -177 	 -74 	-346.08 	 97.23 	 108.15 	
26 	 407 	 -559 	-159.075 	 9.87 	 90.055 	
486 	 1493 	 -930 	-0.455 	 -69.65 	 8.925 	
659 	 1938 	 -1512 	106.785 	 -126.315 	 -49.735 	
756 	 2158 	 -2044 	177.59 	 -156.555 	 -51.065 	
393 	 1809 	 -2298 	211.96 	 -165.34 	 -27.265 	
271 	 1442 	 -2353 	225.855 	 -164.99 	 -24.15 	
115 	 1152 	 -2209 	225.33 	 -148.96 	 -49.98 	
99 	 952 	 -2055 	217.21 	 -126.77 	 -84.42 	
-120 	 941 	 -1771 	209.685 	 -98.84 	 -98.42 	
-346 	 807 	 -1483 	197.225 	 -71.155 	 -84.63 	
-315 	 573 	 -1400 	183.995 	 -47.425 	 -58.065 	
-184 	 425 	 -1447 	174.615 	 -26.11 	 -34.825 	
-176 	 396 	 -1467 	166.46 	 -6.335 	 -22.645 	
-295 	 298 	 -1470 	157.465 	 11.2 	 -17.395 	
-347 	 221 	 -1507 	150.745 	 23.135 	 -14.945 	
-382 	 197 	 -1508 	147.84 	 31.01 	 -15.085 	
-464 	 135 	 -1473 	145.915 	 35.84 	 -14.28 	
-512 	 162 	 -1458 	147.91 	 36.33 	 -5.565 	
-516 	 169 	 -1424 	151.55 	 33.705 	 12.495 	
-451 	 123 	 -1419 	157.605 	 28.455 	 30.87 	
-376 	 34 	 -1374 	165.48 	 22.05 	 37.765 	
-313 	 -124 	 -1322 	173.425 	 15.61 	 27.86 	
-270 	 -197 	 -1288 	183.505 	 9.135 	 7 	
-273 	 -224 	 -1227 	194.04 	 2.45 	 -11.62 	
-246 	 -234 	 -1194 	204.12 	 -4.97 	 -19.6 	
-200 	 -235 	 -1139 	213.535 	 -12.355 	 -18.41 	
-136 	 -242 	 -1098 	220.92 	 -19.915 	 -13.475 	
-128 	 -228 	 -1057 	226.59 	 -26.985 	 -6.125 	
-124 	 -251 	 -1028 	229.39 	 -33.88 	 4.69 	
-147 	 -250 	 -1003 	230.79 	 -40.95 	 16.45 	
-152 	 -305 	 -932 	229.74 	 -47.67 	 24.675 	
-146 	 -375 	 -895 	227.01 	 -54.285 	 26.11 	
-121 	 -422 	 -875 	223.475 	 -59.99 	 20.055 	
-130 	 -456 	 -821 	219.485 	 -64.505 	 9.205 	
-129 	 -538 	 -765 	214.725 	 -67.97 	 -1.435 	
-129 	 -549 	 -719 	210.56 	 -70.945 	 -8.89 	
-98 	 -577 	 -695 	206.045 	 -73.465 	 -13.615 	
-116 	 -630 	 -673 	201.495 	 -74.585 	 -16.31 	
-111 	 -673 	 -649 	196.98 	 -75.67 	 -16.87 	
-110 	 -704 	 -635 	192.535 	 -76.195 	 -15.82 	
-91 	 -751 	 -610 	187.845 	 -76.055 	 -14.42 	
-71 	 -807 	 -584 	183.085 	 -75.215 	 -13.685 	
-53 	 -841 	 -556 	178.745 	 -73.815 	 -14.35 	
-47 	 -882 	 -523 	174.3 	 -71.61 	 -16.73 	
-55 	 -922 	 -483 	170.52 	 -68.95 	 -20.51 	
-70 	 -941 	 -436 	167.195 	 -65.975 	 -24.745 	
-45 	 -896 	 -383 	164.15 	 -62.825 	 -28 	
-34 	 -957 	 -312 	160.125 	 -58.695 	 -26.355 	
11 	 -1020 	 -251 	156.73 	 -54.775 	 -16.065 	
19 	 -1015 	 -144 	153.16 	 -50.12 	 1.54 	
-43 	 -862 	 79 	148.68 	 -45.57 	 21.105 	
-304 	 -847 	 488 	138.285 	 -40.495 	 41.475 	
-697 	 -707 	 1148 	123.025 	 -37.17 	 65.38 	
-884 	 -928 	 2210 	92.68 	 -31.955 	 101.78 	
-1204 	 -456 	 3545 	43.89 	 -22.645 	 148.435 	
-877 	 -677 	 4070 	-46.2 	 -0.105 	 166.6 	
-59 	 356 	 4280 	-152.74 	 42.56 	 98.455 	
497 	 1060 	 3782 	-303.31 	 99.785 	 -0.14 	
846 	 2509 	 2349 	-482.195 	 168.14 	 15.225 	
1190 	 3138 	 364 	-672.07 	 245.735 	 162.75 	
1772 	 3225 	 -1839 	-846.405 	 339.22 	 290.57 	
2053 	 3514 	 -3987 	-980.7 	 441.35 	 314.825 	
2135 	 3102 	 -5243 	-1059.73 	 526.015 	 293.825 	
1118 	 1127 	 -4549 	-1076.18 	 580.09 	 228.41 	
61 	 -133 	 -2568 	-1019.66 	 558.6 	 89.6 	
-1127 	 -1244 	 -738 	-900.83 	 468.055 	 -19.6 	
-1296 	 -1112 	 475 	-719.6 	 322.98 	 -43.715 	
-1054 	 -1379 	 221 	-526.925 	 178.395 	 -50.015 	
-688 	 -259 	 -40 	-304.71 	 36.33 	 -56.105 	
-216 	 712 	 -421 	-119.595 	 -87.395 	 -33.915 	
259 	 1292 	 -1262 	18.06 	 -175.315 	 -20.755 	
586 	 2090 	 -1855 	111.02 	 -230.51 	 -37.52 	
614 	 2212 	 -2399 	154.315 	 -248.78 	 -50.54 	
659 	 2227 	 -2594 	169.435 	 -241.64 	 -52.92 	
496 	 1781 	 -2464 	160.825 	 -214.48 	 -50.19 	
497 	 1415 	 -2137 	143.01 	 -176.435 	 -49.385 	
433 	 1094 	 -1871 	120.12 	 -129.955 	 -47.635 	
328 	 941 	 -1680 	100.065 	 -82.495 	 -33.11 	
107 	 790 	 -1536 	84.21 	 -39.165 	 1.96 	
-71 	 611 	 -1482 	73.78 	 -3.08 	 44.31 	
-337 	 494 	 -1450 	70.105 	 26.53 	 71.785 	
-471 	 439 	 -1510 	70.875 	 46.585 	 72.135 	
-554 	 580 	 -1593 	77.14 	 59.43 	 53.9 	
-557 	 717 	 -1671 	83.685 	 65.275 	 35.77 	
-547 	 820 	 -1722 	91.28 	 65.975 	 27.055 	
-543 	 808 	 -1738 	99.61 	 61.74 	 24.745 	
-498 	 718 	 -1741 	110.25 	 53.13 	 20.65 	
-500 	 574 	 -1681 	121.87 	 42.21 	 10.745 	
-477 	 437 	 -1605 	135.31 	 28.77 	 -3.43 	
-442 	 367 	 -1542 	150.605 	 14.175 	 -15.89 	
-357 	 299 	 -1476 	166.355 	 -1.61 	 -22.47 	
-260 	 232 	 -1429 	182.07 	 -16.695 	 -25.025 	
-194 	 167 	 -1378 	196.77 	 -30.73 	 -24.78 	
-150 	 138 	 -1344 	210.63 	 -44.31 	 -19.53 	
-153 	 110 	 -1295 	222.425 	 -57.155 	 -7.245 	
-169 	 40 	 -1256 	231.35 	 -69.685 	 6.58 	
-208 	 -2 	 -1192 	237.755 	 -81.48 	 11.795 	
-240 	 -81 	 -1130 	240.625 	 -92.19 	 3.78 	
-256 	 -104 	 -1077 	241.57 	 -101.465 	 -13.58 	
-238 	 -148 	 -1044 	240.24 	 -109.41 	 -33.635 	
-225 	 -143 	 -999 	237.825 	 -115.43 	 -51.695 	
-193 	 -153 	 -966 	233.8 	 -120.155 	 -64.505 	
-158 	 -122 	 -942 	229.355 	 -123.375 	 -69.79 	
-154 	 -173 	 -925 	223.93 	 -126 	 -65.73 	
-141 	 -200 	 -880 	218.89 	 -127.785 	 -55.02 	
-161 	 -269 	 -806 	213.395 	 -129.36 	 -43.12 	
-157 	 -380 	 -763 	208.075 	 -130.865 	 -36.05 	
-192 	 -495 	 -695 	203.77 	 -131.285 	 -36.645 	
-165 	 -592 	 -651 	200.34 	 -131.6 	 -44.73 	
-153 	 -678 	 -617 	197.61 	 -130.375 	 -58.415 	
-107 	 -732 	 -581 	196 	 -128.45 	 -75.81 	
-73 	 -771 	 -543 	195.125 	 -125.055 	 -94.29 	
-46 	 -772 	 -506 	194.915 	 -120.645 	 -110.565 	
-65 	 -787 	 -440 	194.775 	 -115.185 	 -119.77 	
-70 	 -769 	 -379 	195.02 	 -110.495 	 -120.015 	
-119 	 -775 	 -304 	194.46 	 -105.455 	 -113.225 	
-159 	 -814 	 -183 	193.2 	 -100.45 	 -102.305 	
-249 	 -664 	 98 	189.875 	 -95.41 	 -88.795 	
-508 	 -773 	 640 	179.585 	 -89.46 	 -71.785 	
-848 	 -914 	 1415 	162.19 	 -83.09 	 -52.535 	
-892 	 -1002 	 2426 	127.155 	 -73.045 	 -39.69 	
-794 	 -976 	 2968 	66.325 	 -56.525 	 -50.015 	
-671 	 -183 	 3357 	-18.83 	 -32.795 	 -84.35 	
-259 	 424 	 3371 	-141.575 	 1.05 	 -104.09 	
246 	 1401 	 2851 	-295.155 	 34.58 	 -69.09 	
517 	 1935 	 1652 	-474.18 	 76.335 	 27.895 	
586 	 2443 	 162 	-656.32 	 124.355 	 135.205 	
895 	 2938 	 -1615 	-828.555 	 175.63 	 191.73 	
502 	 3244 	 -3220 	-970.9 	 230.335 	 199.745 	
113 	 2427 	 -4024 	-1070.37 	 264.39 	 182.945 	
-536 	 1029 	 -3403 	-1104.46 	 275.135 	 116.2 	
-1095 	 100 	 -2015 	-1070.3 	 235.34 	 12.46 	
-1378 	 -23 	 -699 	-980.525 	 164.5 	 -50.085 	
-1125 	 -848 	 -258 	-854.21 	 82.145 	 -87.01 	
-495 	 -360 	 -210 	-663.25 	 -10.92 	 -139.79 	
-232 	 501 	 182 	-465.36 	 -74.725 	 -150.5 	
516 	 726 	 -132 	-291.41 	 -121.905 	 -121.59 	
703 	 1179 	 -526 	-126.245 	 -140.525 	 -86.24 	
1082 	 1679 	 -1062 	9.31 	 -142.695 	 -45.15 	
1017 	 1910 	 -1605 	107.905 	 -117.46 	 -2.17 	
806 	 1880 	 -1963 	175.14 	 -88.48 	 35.56 	
496 	 1649 	 -2077 	216.44 	 -55.265 	 57.75 	
93 	 1498 	 -1967 	236.74 	 -23.555 	 64.225 	
-213 	 1378 	 -1900 	242.025 	 3.745 	 69.055 	
-567 	 1281 	 -1793 	238 	 25.935 	 77.595 	
-715 	 971 	 -1801 	226.94 	 39.9 	 76.615 	
-845 	 858 	 -1769 	217.14 	 50.47 	 59.675 	
-878 	 712 	 -1732 	205.38 	 56.105 	 38.885 	
-848 	 786 	 -1677 	195.51 	 59.185 	 27.58 	
-736 	 623 	 -1757 	185.43 	 58.31 	 27.195 	
-614 	 653 	 -1752 	185.01 	 55.23 	 24.5 	
-550 	 429 	 -1666 	182.525 	 50.33 	 9.8 	
-512 	 384 	 -1667 	186.025 	 44.905 	 -11.235 	
-450 	 262 	 -1639 	192.01 	 37.94 	 -27.09 	
-349 	 220 	 -1615 	201.495 	 30.17 	 -35.21 	
-324 	 195 	 -1544 	210.525 	 23.38 	 -35.49 	
-265 	 180 	 -1541 	219.485 	 15.89 	 -31.885 	
-290 	 172 	 -1474 	228.13 	 9.66 	 -29.435 	
-282 	 180 	 -1381 	233.835 	 2.52 	 -27.965 	
-300 	 156 	 -1334 	237.895 	 -4.305 	 -21.455 	
-313 	 137 	 -1256 	240.975 	 -12.005 	 -9.835 	
-300 	 14 	 -1206 	241.675 	 -19.67 	 -3.71 	
-262 	 -49 	 -1169 	241.815 	 -26.74 	 -12.25 	
-207 	 -109 	 -1161 	240.415 	 -32.34 	 -31.15 	
-220 	 -118 	 -1081 	238.91 	 -36.05 	 -48.86 	
-223 	 -157 	 -1020 	235.34 	 -39.62 	 -56.84 	
-231 	 -131 	 -965 	231.735 	 -42.665 	 -54.705 	
-250 	 -142 	 -876 	227.08 	 -46.27 	 -44.625 	
-251 	 -206 	 -803 	221.305 	 -50.54 	 -28.105 	
-273 	 -248 	 -734 	215.32 	 -54.88 	 -9.065 	
-255 	 -334 	 -697 	208.285 	 -59.745 	 4.2 	
-218 	 -422 	 -674 	200.76 	 -63.42 	 3.5 	
-183 	 -453 	 -708 	192.92 	 -65.835 	 -13.3 	
-193 	 -508 	 -697 	185.885 	 -66.43 	 -40.635 	
-222 	 -614 	 -649 	179.165 	 -66.08 	 -67.83 	
-228 	 -651 	 -622 	174.405 	 -65.66 	 -86.66 	
-250 	 -646 	 -592 	171.15 	 -65.52 	 -93.66 	
-229 	 -629 	 -552 	168.42 	 -66.01 	 -88.48 	
-242 	 -654 	 -509 	165.515 	 -66.29 	 -72.765 	
-212 	 -686 	 -485 	162.61 	 -67.445 	 -53.025 	
-147 	 -728 	 -483 	159.285 	 -67.795 	 -37.87 	
-96 	 -757 	 -491 	155.68 	 -66.815 	 -31.71 	
-65 	 -753 	 -510 	151.655 	 -64.54 	 -33.075 	
-52 	 -815 	 -501 	147.56 	 -61.32 	 -38.29 	
-41 	 -916 	 -484 	144.165 	 -57.505 	 -44.485 	
-33 	 -990 	 -471 	142.24 	 -53.2 	 -49.455 	
-41 	 -1062 	 -459 	141.435 	 -48.755 	 -50.995 	
-44 	 -1047 	 -419 	142.17 	 -44.345 	 -47.915 	
-124 	 -1050 	 -235 	142.03 	 -39.165 	 -39.445 	
-259 	 -1192 	 18 	140.98 	 -35.385 	 -28.35 	
-529 	 -1351 	 484 	139.23 	 -31.57 	 -19.355 	
-1081 	 -1599 	 1652 	130.97 	 -29.155 	 -10.85 	
-1505 	 -2370 	 3024 	109.27 	 -31.185 	 7.28 	
-909 	 -1719 	 3701 	63.455 	 -32.725 	 28.735 	
-370 	 -420 	 3307 	-28.91 	 -15.995 	 38.43 	
290 	 1252 	 2574 	-162.47 	 6.16 	 37.485 	
619 	 2049 	 1728 	-339.745 	 41.86 	 69.93 	
711 	 2961 	 170 	-544.81 	 86.835 	 147.665 	
1116 	 3729 	 -1929 	-745.535 	 135.135 	 218.365 	
944 	 4284 	 -3879 	-917.525 	 190.995 	 253.47 	
906 	 3236 	 -5082 	-1050.25 	 237.37 	 254.415 	
-44 	 948 	 -4052 	-1092.11 	 263.9 	 199.29 	
-845 	 -943 	 -1866 	-1041.36 	 236.285 	 114.38 	
-1706 	 -1871 	 -12 	-919.625 	 178.885 	 68.985 	
-1223 	 -2845 	 547 	-737.415 	 88.375 	 22.365 	
-872 	 -1535 	 659 	-509.145 	 0.945 	 -49.35 	
-278 	 -404 	 434 	-294.945 	 -71.12 	 -65.975 	
157 	 701 	 -59 	-100.765 	 -122.08 	 -44.94 	
935 	 1179 	 -912 	37.73 	 -152.075 	 -32.55 	
870 	 1702 	 -1539 	135.66 	 -141.715 	 -26.915 	
937 	 1606 	 -1970 	189.455 	 -124.04 	 -12.915 	
632 	 1420 	 -1987 	213.43 	 -89.845 	 -5.075 	
228 	 1019 	 -1842 	209.755 	 -53.41 	 3.465 	
-93 	 843 	 -1663 	192.815 	 -17.08 	 14.28 	
-370 	 807 	 -1452 	163.065 	 15.4 	 20.615 	
-519 	 822 	 -1411 	128.66 	 40.565 	 32.2 	
-786 	 775 	 -1291 	93.975 	 62.195 	 57.435 	
-730 	 420 	 -1357 	60.655 	 75.355 	 73.885 	
-754 	 294 	 -1440 	37.695 	 85.96 	 62.58 	
-706 	 210 	 -1494 	22.225 	 89.95 	 40.215 	
-705 	 264 	 -1455 	14.84 	 90.93 	 26.635 	
-625 	 218 	 -1471 	12.215 	 87.15 	 25.515 	
-460 	 315 	 -1544 	18.445 	 79.695 	 28.84 	
-333 	 367 	 -1571 	28.21 	 70.91 	 29.225 	
-252 	 294 	 -1599 	41.79 	 61.005 	 23.87 	
-265 	 222 	 -1549 	59.605 	 50.225 	 16.275 	
-339 	 103 	 -1512 	80.605 	 37.555 	 12.04 	
-457 	 42 	 -1431 	104.895 	 23.485 	 7.77 	
-485 	 -34 	 -1384 	128.38 	 8.47 	 -4.305 	
-509 	 -14 	 -1390 	150.5 	 -5.915 	 -22.68 	
-468 	 25 	 -1446 	169.155 	 -19.46 	 -37.24 	
-379 	 118 	 -1506 	184.17 	 -30.835 	 -44.38 	
-317 	 144 	 -1507 	194.95 	 -40.46 	 -46.06 	
-282 	 96 	 -1453 	201.775 	 -48.475 	 -42.91 	
-276 	 50 	 -1405 	206.885 	 -55.51 	 -35.735 	
-296 	 -13 	 -1351 	210.805 	 -61.81 	 -27.545 	
-333 	 -147 	 -1284 	213.29 	 -67.48 	 -23.555 	
-307 	 -262 	 -1256 	214.83 	 -72.31 	 -29.68 	
-237 	 -257 	 -1249 	216.265 	 -75.775 	 -47.005 	
-228 	 -283 	 -1206 	215.88 	 -76.895 	 -67.305 	
-256 	 -273 	 -1179 	214.795 	 -77.28 	 -79.52 	
-279 	 -281 	 -1132 	213.29 	 -77.77 	 -78.68 	
-283 	 -312 	 -1076 	211.435 	 -78.75 	 -67.9 	
-269 	 -348 	 -1047 	209.405 	 -80.22 	 -52.43 	
-264 	 -404 	 -999 	207.795 	 -81.585 	 -37.485 	
-298 	 -501 	 -950 	206.535 	 -83.09 	 -27.23 	
-340 	 -619 	 -875 	205.975 	 -84.175 	 -26.18 	
-280 	 -781 	 -859 	205.94 	 -84.105 	 -38.08 	
-139 	 -804 	 -862 	207.655 	 -82.53 	 -63.035 	
-120 	 -847 	 -829 	209.58 	 -77.315 	 -92.54 	
-123 	 -895 	 -801 	211.715 	 -71.295 	 -115.22 	
-151 	 -923 	 -753 	214.585 	 -64.505 	 -124.18 	
-149 	 -934 	 -704 	217.665 	 -58.205 	 -118.93 	
-136 	 -952 	 -661 	220.71 	 -52.675 	 -102.655 	
-131 	 -988 	 -597 	223.51 	 -47.845 	 -79.975 	
-162 	 -1049 	 -466 	225.4 	 -43.4 	 -55.16 	
-199 	 -1226 	 -376 	226.1 	 -39.83 	 -32.865 	
-123 	 -1209 	 -255 	228.165 	 -37.275 	 -20.58 	
-130 	 -1423 	 77 	226.73 	 -32.76 	 -20.02 	
-321 	 -1553 	 657 	223.615 	 -29.26 	 -26.32 	
-176 	 -2080 	 1552 	208.565 	 -25.97 	 -18.515 	
-633 	 -1272 	 2447 	177.135 	 -24.115 	 36.12 	
-895 	 -624 	 2530 	96.985 	 -24.745 	 145.705 	
-572 	 165 	 2490 	-13.23 	 -17.29 	 218.155 	
195 	 17 	 2550 	-159.215 	 7.14 	 157.43 	
354 	 1210 	 2185 	-334.215 	 46.62 	 59.885 	
439 	 2108 	 1086 	-527.275 	 86.485 	 94.29 	
500 	 2169 	 -220 	-708.68 	 136.85 	 217.245 	
802 	 1813 	 -1615 	-864.71 	 197.085 	 280.42 	
508 	 1536 	 -2317 	-970.48 	 260.75 	 273.595 	
-192 	 530 	 -2325 	-1032.82 	 311.01 	 252.385 	
-544 	 97 	 -1718 	-1022.74 	 327.985 	 200.9 	
-864 	 -219 	 -682 	-969.675 	 312.515 	 114.31 	
-737 	 -330 	 187 	-868.56 	 263.97 	 22.855 	
-491 	 -384 	 621 	-733.005 	 191.415 	 -68.25 	
-153 	 71 	 669 	-567.385 	 107.415 	 -124.005 	
175 	 901 	 627 	-392.98 	 33.11 	 -119.665 	
477 	 1354 	 228 	-233.275 	 -23.065 	 -76.265 	
673 	 1732 	 -237 	-87.92 	 -62.615 	 -30.52 	
631 	 1725 	 -750 	31.115 	 -91.385 	 10.745 	
529 	 1206 	 -1201 	120.015 	 -103.705 	 41.44 	
137 	 873 	 -1301 	184.17 	 -101.78 	 44.24 	
7 	 741 	 -1371 	222.53 	 -94.57 	 28.21 	
-23 	 933 	 -1410 	241.71 	 -76.685 	 1.75 	
18 	 1018 	 -1436 	237.965 	 -53.55 	 -22.925 	
-111 	 1118 	 -1428 	221.06 	 -26.145 	 -27.72 	
-278 	 1156 	 -1337 	192.85 	 -1.4 	 -4.97 	
-460 	 1031 	 -1296 	158.97 	 19.845 	 31.815 	
-570 	 854 	 -1261 	125.475 	 35.875 	 57.33 	
-627 	 706 	 -1285 	92.855 	 48.86 	 58.24 	
-668 	 545 	 -1414 	64.365 	 59.36 	 41.86 	
-610 	 529 	 -1540 	43.785 	 65.1 	 24.605 	
-678 	 492 	 -1564 	29.75 	 69.51 	 18.69 	
-609 	 411 	 -1514 	23.695 	 67.865 	 16.695 	
-527 	 228 	 -1418 	23.73 	 64.435 	 6.475 	
-442 	 197 	 -1437 	31.465 	 57.995 	 -8.505 	
-361 	 160 	 -1490 	45.43 	 49.315 	 -15.68 	
-318 	 130 	 -1478 	63.595 	 39.445 	 -13.86 	
-273 	 58 	 -1478 	83.16 	 27.755 	 -9.38 	
-265 	 29 	 -1481 	104.79 	 15.47 	 -3.71 	
-293 	 -9 	 -1473 	125.825 	 2.38 	 5.11 	
-319 	 -19 	 -1488 	145.145 	 -11.445 	 13.65 	
-320 	 -45 	 -1532 	162.19 	 -25.41 	 13.895 	
-325 	 -39 	 -1535 	176.155 	 -38.395 	 3.08 	
-333 	 -43 	 -1543 	185.815 	 -50.05 	 -13.405 	
-296 	 -46 	 -1563 	192.5 	 -60.305 	 -29.82 	
-231 	 -74 	 -1560 	196.245 	 -68.075 	 -44.31 	
-143 	 -82 	 -1533 	197.82 	 -73.92 	 -57.295 	
-77 	 -106 	 -1456 	198.1 	 -77.7 	 -67.165 	
-61 	 -185 	 -1389 	197.12 	 -80.115 	 -70 	
-66 	 -215 	 -1294 	197.4 	 -82.11 	 -63.875 	
-96 	 -275 	 -1209 	196.735 	 -84.35 	 -49.91 	
-89 	 -302 	 -1172 	197.19 	 -87.465 	 -33.18 	
-107 	 -389 	 -1084 	197.575 	 -89.95 	 -19.565 	
-121 	 -482 	 -1032 	198.065 	 -92.33 	 -13.265 	
-112 	 -539 	 -999 	199.115 	 -93.59 	 -16.905 	
-75 	 -595 	 -968 	200.515 	 -93.73 	 -30.275 	
-60 	 -670 	 -944 	201.95 	 -91.945 	 -48.545 	
-53 	 -677 	 -926 	204.505 	 -89.11 	 -64.54 	
-56 	 -678 	 -876 	207.2 	 -85.575 	 -72.45 	
-70 	 -713 	 -819 	210 	 -82.25 	 -69.965 	
-78 	 -720 	 -750 	213.29 	 -79.205 	 -58.135 	
-88 	 -696 	 -682 	216.3 	 -76.685 	 -40.775 	
-117 	 -708 	 -610 	218.26 	 -74.235 	 -23.66 	
-62 	 -661 	 -617 	219.45 	 -71.435 	 -13.86 	
51 	 -575 	 -634 	219.8 	 -67.375 	 -16.1 	
46 	 -658 	 -591 	218.155 	 -60.62 	 -25.585 	
-26 	 -802 	 -515 	216.895 	 -53.515 	 -31.745 	
-111 	 -930 	 -330 	216.125 	 -46.41 	 -29.54 	
-365 	 -1015 	 191 	214.795 	 -39.34 	 -20.615 	
-766 	 -1258 	 939 	205.38 	 -33.39 	 -3.465 	
-1050 	 -1197 	 2166 	183.05 	 -29.505 	 31.71 	
-2390 	 -1268 	 3581 	135.835 	 -23.905 	 93.66 	
-1518 	 -738 	 4024 	57.505 	 -18.48 	 116.165 	
-706 	 -331 	 3760 	-56.77 	 15.47 	 30.415 	
-2 	 823 	 2987 	-204.925 	 50.54 	 -79.38 	
-43 	 2073 	 1894 	-381.01 	 106.89 	 -42.14 	
659 	 2439 	 185 	-572.11 	 158.725 	 109.935 	
1320 	 2796 	 -1843 	-748.615 	 230.335 	 217.63 	
1375 	 3328 	 -3667 	-888.86 	 309.96 	 256.515 	
1580 	 2281 	 -4632 	-977.13 	 381.99 	 277.9 	
812 	 542 	 -3617 	-994.35 	 438.83 	 250.04 	
-218 	 -951 	 -1871 	-940.205 	 441 	 176.015 	
-1321 	 -1657 	 -247 	-823.585 	 400.54 	 134.68 	
-1041 	 -1622 	 14 	-656.145 	 305.55 	 116.375 	
-1063 	 -972 	 484 	-459.025 	 205.415 	 110.775 	
-766 	 -284 	 473 	-280.91 	 106.89 	 86.835 	
-90 	 587 	 19 	-129.115 	 10.08 	 2.065 	
382 	 1615 	 -583 	-8.505 	 -71.05 	 -91.945 	
680 	 2200 	 -1291 	75.495 	 -122.045 	 -101.99 	
613 	 2145 	 -1717 	119.84 	 -145.81 	 -59.64 	
552 	 1840 	 -1936 	136.36 	 -155.05 	 -33.04 	
369 	 1397 	 -1890 	134.855 	 -147.77 	 -40.74 	
112 	 1030 	 -1693 	124.075 	 -129.325 	 -60.725 	
-109 	 760 	 -1404 	109.2 	 -103.67 	 -69.44 	
-136 	 535 	 -1163 	90.685 	 -75.81 	 -69.23 	
-107 	 444 	 -1063 	73.605 	 -47.74 	 -65.03 	
-216 	 420 	 -1004 	58.31 	 -19.74 	 -44.66 	
-130 	 319 	 -1072 	43.33 	 4.06 	 -8.54 	
-156 	 306 	 -1192 	32.27 	 26.845 	 21.385 	
-229 	 321 	 -1339 	22.19 	 43.995 	 34.685 	
-369 	 379 	 -1438 	15.225 	 58.38 	 39.095 	
-395 	 414 	 -1455 	10.955 	 66.5 	 37.625 	
-462 	 433 	 -1449 	8.68 	 71.085 	 29.925 	
-464 	 459 	 -1409 	9.835 	 70.63 	 18.13 	
-468 	 389 	 -1383 	12.775 	 67.165 	 7.28 	
-468 	 403 	 -1396 	20.16 	 60.725 	 1.96 	
-384 	 314 	 -1419 	30.31 	 50.855 	 -0.14 	
-333 	 266 	 -1422 	43.33 	 40.46 	 -4.76 	
-273 	 208 	 -1450 	58.24 	 29.015 	 -11.655 	
-213 	 203 	 -1464 	74.76 	 17.815 	 -18.725 	
-151 	 192 	 -1487 	91.455 	 6.3 	 -24.395 	
-156 	 232 	 -1489 	108.01 	 -4.55 	 -25.515 	
-154 	 240 	 -1500 	123.34 	 -15.925 	 -20.685 	
-152 	 246 	 -1470 	137.025 	 -27.055 	 -14.315 	
-160 	 217 	 -1441 	147.42 	 -37.87 	 -10.64 	
-172 	 172 	 -1443 	155.295 	 -47.775 	 -9.87 	
-147 	 155 	 -1436 	161.385 	 -56.665 	 -12.88 	
-114 	 123 	 -1433 	164.185 	 -64.05 	 -20.65 	
-100 	 110 	 -1441 	165.55 	 -69.72 	 -30.205 	
-106 	 74 	 -1407 	166.11 	 -74.235 	 -37.485 	
-128 	 -42 	 -1363 	166.215 	 -78.05 	 -42.14 	
-150 	 -79 	 -1267 	168.315 	 -81.795 	 -44.73 	
-211 	 -185 	 -1190 	169.68 	 -85.54 	 -43.54 	
-229 	 -205 	 -1167 	173.215 	 -89.355 	 -38.255 	
-224 	 -240 	 -1134 	176.715 	 -93.065 	 -34.37 	
-179 	 -332 	 -1109 	179.41 	 -95.655 	 -40.74 	
-152 	 -363 	 -1097 	182.28 	 -95.9 	 -56.98 	
-121 	 -392 	 -1069 	185.185 	 -94.99 	 -73.99 	
-133 	 -458 	 -1015 	187.985 	 -92.47 	 -84.455 	
-132 	 -503 	 -972 	191.38 	 -89.705 	 -88.095 	
-152 	 -511 	 -934 	195.335 	 -86.695 	 -87.43 	
-172 	 -542 	 -877 	199.675 	 -83.86 	 -83.3 	
-176 	 -645 	 -833 	203.84 	 -81.13 	 -73.92 	
-221 	 -687 	 -803 	209.09 	 -78.75 	 -57.54 	
-243 	 -692 	 -799 	214.165 	 -77.56 	 -36.96 	
-287 	 -732 	 -793 	219.135 	 -76.37 	 -18.55 	
-300 	 -809 	 -786 	223.265 	 -75.495 	 -8.12 	
-367 	 -875 	 -747 	227.885 	 -74.095 	 -9.45 	
-437 	 -1031 	 -702 	231.735 	 -71.855 	 -25.305 	
-359 	 -1123 	 -671 	237.125 	 -68.775 	 -57.47 	
-307 	 -1066 	 -408 	242.515 	 -62.055 	 -96.39 	
-547 	 -1423 	 7 	245.07 	 -53.375 	 -112.98 	
-1021 	 -1745 	 752 	248.395 	 -47.6 	 -87.29 	
-1392 	 -2276 	 1904 	240.66 	 -44.555 	 -29.575 	
-1565 	 -2007 	 2836 	213.605 	 -43.12 	 17.57 	
-684 	 -1098 	 2654 	143.15 	 -29.82 	 4.97 	
-84 	 243 	 2332 	34.72 	 2.205 	 -56.245 	
576 	 1324 	 2264 	-120.4 	 39.375 	 -68.075 	
891 	 2234 	 1607 	-311.535 	 91.315 	 36.435 	
1525 	 2573 	 15 	-520.31 	 146.195 	 184.555 	
1739 	 3154 	 -1842 	-712.11 	 222.845 	 277.515 	
1782 	 3444 	 -3525 	-872.48 	 298.62 	 326.83 	
1199 	 2649 	 -4417 	-991.06 	 378.42 	 363.475 	
-49 	 532 	 -3829 	-1028.9 	 430.535 	 324.45 	
-1491 	 -1319 	 -1644 	-977.165 	 414.54 	 204.505 	
-2823 	 -2058 	 398 	-882.945 	 348.845 	 99.225 	
-2445 	 -2291 	 510 	-746.585 	 231.805 	 -1.26 	
-2165 	 -1591 	 788 	-552.23 	 97.685 	 -114.1 	
-1068 	 235 	 985 	-367.815 	 -27.685 	 -189.56 	
-170 	 990 	 360 	-218.89 	 -117.25 	 -216.125 	
789 	 2330 	 -177 	-76.51 	 -183.575 	 -205.275 	
1430 	 2522 	 -935 	14.91 	 -207.76 	 -141.505 	
1641 	 2382 	 -1494 	76.475 	 -199.36 	 -67.935 	
1286 	 1611 	 -1606 	107.94 	 -175.14 	 -12.425 	
737 	 937 	 -1487 	125.615 	 -141.085 	 12.53 	
292 	 612 	 -1278 	130.62 	 -103.88 	 12.32 	
18 	 653 	 -1185 	128.03 	 -67.13 	 4.48 	
-247 	 754 	 -1116 	117.74 	 -33.67 	 7.105 	
-421 	 844 	 -1112 	103.25 	 -6.405 	 24.64 	
-624 	 866 	 -1011 	87.675 	 15.645 	 52.43 	
-782 	 737 	 -1001 	68.495 	 32.83 	 78.995 	
-801 	 650 	 -1130 	53.9 	 44.73 	 85.96 	
-688 	 677 	 -1273 	42.63 	 52.78 	 64.47 	
-612 	 770 	 -1436 	33.11 	 59.64 	 33.285 	
-620 	 873 	 -1464 	27.545 	 64.505 	 18.48 	
-552 	 757 	 -1422 	24.43 	 65.485 	 19.46 	
-490 	 635 	 -1419 	27.195 	 64.19 	 18.13 	
-434 	 597 	 -1421 	36.54 	 59.99 	 9.03 	
-456 	 574 	 -1401 	50.225 	 54.145 	 1.89 	
-437 	 499 	 -1468 	67.655 	 45.29 	 4.27 	
-430 	 398 	 -1489 	88.76 	 35.35 	 12.18 	
-447 	 283 	 -1477 	111.195 	 24.01 	 17.64 	
-447 	 243 	 -1454 	135.415 	 11.515 	 16.835 	
-422 	 183 	 -1448 	158.06 	 -1.155 	 9.835 	
-392 	 183 	 -1476 	180.355 	 -13.72 	 -0.91 	
-373 	 189 	 -1463 	199.92 	 -25.165 	 -11.795 	
-329 	 226 	 -1470 	216.335 	 -35.56 	 -20.51 	
-267 	 230 	 -1491 	229.495 	 -44.8 	 -24.955 	
-245 	 213 	 -1462 	239.4 	 -52.22 	 -24.465 	
-233 	 143 	 -1411 	245.14 	 -58.38 	 -22.085 	
-224 	 44 	 -1378 	248.535 	 -63.21 	 -24.57 	
-182 	 -51 	 -1331 	249.9 	 -66.64 	 -35.385 	
-192 	 -110 	 -1263 	249.69 	 -67.83 	 -51.03 	
-196 	 -154 	 -1187 	247.73 	 -67.9 	 -64.995 	
-189 	 -209 	 -1138 	244.545 	 -66.605 	 -72.87 	
-106 	 -247 	 -1098 	240.485 	 -64.925 	 -74.725 	
-65 	 -305 	 -1034 	235.795 	 -61.74 	 -72.275 	
-74 	 -385 	 -937 	230.23 	 -57.995 	 -64.855 	
-116 	 -439 	 -854 	224.63 	 -54.775 	 -52.08 	
-157 	 -515 	 -779 	219.24 	 -52.43 	 -36.925 	
-186 	 -622 	 -722 	214.34 	 -50.96 	 -24.185 	
-196 	 -691 	 -681 	210.525 	 -49.98 	 -16.695 	
-231 	 -762 	 -637 	207.55 	 -49.35 	 -13.685 	
-314 	 -836 	 -579 	205.8 	 -49.245 	 -13.65 	
-426 	 -908 	 -515 	205.03 	 -49.56 	 -16.345 	
-435 	 -950 	 -483 	205.8 	 -51.135 	 -25.795 	
-393 	 -1017 	 -443 	207.025 	 -51.695 	 -44.275 	
-349 	 -1051 	 -342 	209.195 	 -51.03 	 -67.165 	
-363 	 -1091 	 -147 	211.435 	 -48.72 	 -82.495 	
-565 	 -1213 	 93 	213.605 	 -47.145 	 -77.875 	
-825 	 -1542 	 493 	214.375 	 -47.075 	 -51.87 	
-1403 	 -1805 	 1253 	213.885 	 -48.79 	 -17.395 	
-1992 	 -1850 	 2206 	202.055 	 -54.67 	 0.385 	
-1890 	 -1457 	 2786 	166.6 	 -57.505 	 -33.18 	
-1006 	 -336 	 2565 	94.745 	 -46.165 	 -128.24 	
-762 	 1011 	 2200 	-16.31 	 -20.195 	 -210 	
-168 	 2093 	 1698 	-171.605 	 6.44 	 -163.485 	
611 	 2551 	 680 	-355.81 	 41.3 	 12.39 	
1254 	 2450 	 -625 	-550.9 	 96.32 	 159.215 	
1638 	 2771 	 -2137 	-734.125 	 164.01 	 197.015 	
1553 	 3098 	 -3725 	-890.96 	 236.67 	 209.895 	
1474 	 2191 	 -4700 	-993.265 	 298.9 	 234.395 	
931 	 -171 	 -3888 	-1028.83 	 341.635 	 191.73 	
-335 	 -1411 	 -2095 	-977.97 	 329.49 	 66.01 	
-1379 	 -1310 	 -212 	-861.595 	 262.955 	 -6.09 	
-1416 	 -1566 	 450 	-724.535 	 169.26 	 0.245 	
-1173 	 -1394 	 139 	-539.28 	 63.875 	 -18.515 	
-671 	 114 	 232 	-331.45 	 -35.385 	 -58.38 	
-302 	 500 	 10 	-174.58 	 -116.06 	 -94.15 	
154 	 1209 	 -592 	-33.705 	 -177.625 	 -112.84 	
532 	 1341 	 -1215 	71.89 	 -207.2 	 -92.715 	
546 	 1288 	 -1653 	145.88 	 -209.51 	 -50.61 	
578 	 902 	 -1821 	187.18 	 -193.655 	 -20.825 	
557 	 675 	 -1814 	206.955 	 -160.58 	 -30.975 	
465 	 686 	 -1624 	206.78 	 -116.48 	 -60.865 	
250 	 812 	 -1448 	194.215 	 -68.74 	 -65.03 	
27 	 977 	 -1103 	170.555 	 -23.45 	 -29.785 	
-203 	 672 	 -992 	134.225 	 18.865 	 14.595 	
-196 	 628 	 -1077 	101.255 	 50.365 	 35.56 	
-413 	 626 	 -1128 	66.15 	 80.325 	 42.49 	
-447 	 722 	 -1232 	33.565 	 102.165 	 51.905 	
-464 	 668 	 -1275 	3.885 	 120.26 	 61.81 	
-445 	 566 	 -1298 	-20.125 	 132.825 	 64.715 	
-409 	 477 	 -1252 	-35.805 	 139.895 	 62.755 	
-418 	 373 	 -1222 	-44.415 	 142.975 	 62.405 	
-341 	 352 	 -1240 	-45.36 	 141.015 	 64.47 	
-247 	 346 	 -1276 	-39.62 	 135.485 	 62.335 	
-132 	 347 	 -1317 	-29.19 	 126.84 	 48.93 	
-112 	 322 	 -1311 	-15.82 	 116.83 	 26.88 	
-169 	 295 	 -1252 	0.42 	 103.355 	 9.8 	
-219 	 327 	 -1271 	19.285 	 86.485 	 11.025 	
-236 	 380 	 -1343 	40.25 	 67.025 	 28.665 	
-223 	 408 	 -1386 	61.39 	 46.585 	 48.09 	
-205 	 403 	 -1428 	80.465 	 26.25 	 55.615 	
-169 	 391 	 -1491 	98.175 	 7.105 	 46.165 	
-157 	 346 	 -1511 	114.415 	 -10.535 	 23.415 	
-206 	 282 	 -1495 	128.8 	 -25.865 	 -4.48 	
-235 	 230 	 -1487 	142.59 	 -40.04 	 -31.01 	
-249 	 226 	 -1450 	156.065 	 -53.165 	 -51.8 	
-225 	 168 	 -1468 	168 	 -65.17 	 -60.235 	
-168 	 136 	 -1492 	178.745 	 -75.005 	 -55.3 	
-86 	 83 	 -1525 	187.565 	 -83.335 	 -44.905 	
-3 	 41 	 -1544 	194.18 	 -89.25 	 -37.275 	
42 	 -2 	 -1524 	199.15 	 -92.645 	 -35.455 	
65 	 -146 	 -1467 	202.09 	 -94.115 	 -38.85 	
48 	 -239 	 -1415 	204.925 	 -93.94 	 -46.27 	
44 	 -300 	 -1368 	207.2 	 -93.065 	 -55.37 	
2 	 -323 	 -1322 	209.02 	 -91.28 	 -62.965 	
-30 	 -323 	 -1251 	209.755 	 -89.425 	 -65.94 	
-56 	 -359 	 -1237 	208.88 	 -87.535 	 -61.005 	
-89 	 -326 	 -1210 	208.075 	 -86.065 	 -47.88 	
-72 	 -325 	 -1175 	205.52 	 -85.4 	 -30.765 	
-94 	 -343 	 -1137 	202.3 	 -84.245 	 -16.17 	
-110 	 -403 	 -1091 	199.535 	 -83.685 	 -8.645 	
-161 	 -548 	 -1010 	197.365 	 -82.53 	 -8.715 	
-180 	 -656 	 -955 	197.295 	 -81.865 	 -16.1 	
-200 	 -748 	 -906 	199.22 	 -80.395 	 -29.085 	
-193 	 -823 	 -871 	202.86 	 -78.855 	 -44.415 	
-176 	 -876 	 -843 	207.97 	 -76.265 	 -57.995 	
-162 	 -982 	 -820 	213.325 	 -72.8 	 -65.38 	
-98 	 -990 	 -811 	219.765 	 -68.775 	 -66.43 	
-8 	 -990 	 -626 	225.575 	 -62.755 	 -61.635 	
-44 	 -1308 	 -288 	228.41 	 -55.3 	 -48.195 	
116 	 -1612 	 630 	229.46 	 -46.27 	 -24.36 	
-522 	 -1608 	 1978 	216.195 	 -34.895 	 16.73 	
-1156 	 -1350 	 2546 	172.305 	 -29.015 	 54.215 	
-1106 	 -738 	 2986 	102.27 	 -15.33 	 35.63 	
-978 	 -290 	 3067 	-4.97 	 3.395 	 -41.335 	
-489 	 624 	 2558 	-151.27 	 23.94 	 -81.62 	
-516 	 1602 	 1568 	-325.885 	 53.305 	 -5.635 	
157 	 2364 	 140 	-512.155 	 80.22 	 113.645 	
547 	 2945 	 -1470 	-697.06 	 124.88 	 173.775 	
1200 	 3833 	 -3162 	-851.76 	 171.78 	 181.79 	
1340 	 2815 	 -4168 	-973.49 	 221.165 	 199.01 	
903 	 1378 	 -3427 	-1012.06 	 256.48 	 221.585 	
51 	 -766 	 -1977 	-989.415 	 268.8 	 230.3 	
-715 	 -1883 	 -394 	-870.52 	 246.82 	 209.37 	
-848 	 -2179 	 -12 	-719.425 	 187.32 	 151.9 	
-1272 	 -1679 	 444 	-523.25 	 113.33 	 105.28 	
-981 	 -1100 	 635 	-337.05 	 29.225 	 24.465 	
-405 	 -345 	 331 	-171.885 	 -48.65 	 -95.305 	
176 	 850 	 22 	-27.37 	 -110.775 	 -172.83 	
725 	 1625 	 -656 	81.06 	 -146.195 	 -150.185 	
773 	 2106 	 -1218 	154.77 	 -160.86 	 -68.145 	
812 	 1876 	 -1678 	186.305 	 -157.29 	 -0.56 	
459 	 1683 	 -1673 	194.145 	 -138.53 	 18.585 	
285 	 1339 	 -1656 	183.75 	 -116.83 	 2.975 	
-54 	 1230 	 -1511 	170.415 	 -89.95 	 -11.83 	
-277 	 968 	 -1321 	151.83 	 -66.395 	 -12.46 	
-524 	 868 	 -1111 	135.24 	 -44.52 	 -9.835 	
-570 	 622 	 -1031 	115.92 	 -26.425 	 -15.085 	
-485 	 569 	 -1121 	102.515 	 -10.71 	 -23.87 	
-432 	 583 	 -1165 	90.475 	 4.13 	 -20.93 	
-337 	 555 	 -1288 	79.135 	 17.57 	 0.105 	
-247 	 501 	 -1366 	71.015 	 29.61 	 27.685 	
-205 	 444 	 -1414 	66.185 	 39.9 	 49.35 	
-228 	 425 	 -1420 	66.115 	 47.88 	 59.885 	
-306 	 389 	 -1419 	69.79 	 52.57 	 58.59 	
-343 	 483 	 -1346 	77.63 	 54.04 	 46.13 	
-358 	 417 	 -1390 	86.345 	 51.8 	 31.815 	
-375 	 415 	 -1442 	99.33 	 47.145 	 25.165 	
-363 	 357 	 -1492 	112.84 	 39.865 	 25.095 	
-355 	 276 	 -1505 	127.995 	 31.43 	 25.585 	
-356 	 160 	 -1477 	143.36 	 21.945 	 26.18 	
-331 	 84 	 -1465 	158.935 	 11.935 	 28.91 	
-333 	 25 	 -1455 	174.335 	 1.75 	 31.92 	
-302 	 -14 	 -1447 	188.615 	 -8.085 	 28.77 	
-311 	 -55 	 -1403 	200.795 	 -16.485 	 15.365 	
-303 	 -74 	 -1340 	210.455 	 -24.185 	 -5.705 	
-285 	 -100 	 -1324 	217.665 	 -30.31 	 -25.165 	
-272 	 -64 	 -1307 	223.125 	 -35.945 	 -32.83 	
-247 	 -91 	 -1311 	226.03 	 -42.035 	 -24.535 	
-226 	 -103 	 -1299 	227.43 	 -47.985 	 -6.335 	
-202 	 -172 	 -1267 	226.66 	 -54.18 	 12.005 	
-175 	 -229 	 -1238 	224.84 	 -59.92 	 23.415 	
-194 	 -283 	 -1204 	222.11 	 -64.89 	 24.78 	
-203 	 -346 	 -1111 	219.695 	 -69.02 	 15.505 	
-243 	 -456 	 -1032 	216.65 	 -71.925 	 -1.89 	
-259 	 -440 	 -973 	214.865 	 -74.27 	 -23.765 	
-251 	 -440 	 -943 	212.45 	 -75.845 	 -44.8 	
-239 	 -440 	 -961 	210 	 -76.44 	 -58.905 	
-210 	 -406 	 -928 	207.795 	 -76.93 	 -63.525 	
-217 	 -472 	 -883 	204.995 	 -77.07 	 -59.885 	
-203 	 -527 	 -839 	202.44 	 -77.35 	 -50.33 	
-195 	 -592 	 -786 	200.41 	 -77.7 	 -38.675 	
-191 	 -663 	 -747 	198.94 	 -78.33 	 -28.91 	
-214 	 -748 	 -701 	198.24 	 -78.68 	 -22.575 	
-271 	 -821 	 -639 	198.205 	 -78.75 	 -20.23 	
-322 	 -897 	 -588 	198.59 	 -79.24 	 -23.205 	
-369 	 -914 	 -507 	199.5 	 -78.995 	 -31.92 	
-515 	 -955 	 -278 	200.48 	 -78.295 	 -42.07 	
-928 	 -1108 	 264 	201.145 	 -78.855 	 -46.165 	
-1629 	 -1857 	 1021 	199.29 	 -82.18 	 -34.545 	
-2003 	 -2281 	 1839 	194.005 	 -89.88 	 -16.345 	
-1407 	 -1804 	 2208 	170.17 	 -93.24 	 -23.87 	
-956 	 -237 	 2069 	110.355 	 -78.365 	 -81.305 	
-810 	 324 	 2314 	10.15 	 -51.73 	 -163.695 	
-256 	 1292 	 2423 	-120.82 	 -19.565 	 -185.85 	
399 	 1809 	 1609 	-295.645 	 16.135 	 -93.17 	
929 	 2295 	 255 	-478.485 	 59.29 	 46.41 	
1357 	 2458 	 -1199 	-662.06 	 117.145 	 149.695 	
1603 	 2856 	 -2816 	-831.46 	 185.08 	 209.44 	
1541 	 3103 	 -4192 	-963.025 	 254.625 	 251.125 	
1031 	 1645 	 -4459 	-1046.4 	 316.295 	 260.295 	
-38 	 202 	 -3265 	-1060.26 	 348.145 	 208.32 	
-1333 	 -1353 	 -1564 	-1023.68 	 331.345 	 131.075 	
-1395 	 -1881 	 -571 	-910.07 	 253.785 	 38.045 	
-1566 	 -1688 	 186 	-755.475 	 148.435 	 -43.715 	
-1511 	 -914 	 763 	-578.34 	 40.67 	 -66.605 	
-983 	 -396 	 608 	-409.29 	 -58.03 	 -104.79 	
-178 	 636 	 303 	-246.715 	 -141.295 	 -173.88 	
292 	 1220 	 -162 	-107.205 	 -197.82 	 -209.44 	
913 	 1846 	 -731 	10.5 	 -230.055 	 -183.19 	
790 	 1807 	 -1060 	84.175 	 -228.515 	 -108.465 	
718 	 1484 	 -1385 	132.86 	 -217.875 	 -14.84 	
720 	 1069 	 -1434 	154.735 	 -186.725 	 46.9 	
636 	 797 	 -1372 	161.945 	 -145.18 	 48.825 	
296 	 923 	 -1215 	160.755 	 -100.765 	 19.04 	
-57 	 968 	 -1181 	149.38 	 -59.08 	 4.34 	
-257 	 965 	 -1136 	134.925 	 -23.205 	 11.795 	
-468 	 812 	 -1101 	117.88 	 7.42 	 28.49 	
-581 	 647 	 -1073 	101.955 	 31.675 	 40.775 	
-643 	 526 	 -1078 	87.71 	 51.24 	 44.205 	
-671 	 518 	 -1127 	76.44 	 67.025 	 44.38 	
-622 	 517 	 -1209 	67.725 	 78.82 	 43.68 	
-526 	 567 	 -1251 	61.6 	 88.13 	 37.065 	
-486 	 583 	 -1283 	56.875 	 95.585 	 24.605 	
-448 	 571 	 -1297 	55.79 	 100.485 	 9.415 	
-425 	 455 	 -1311 	58.17 	 102.48 	 -7.77 	
-413 	 348 	 -1348 	65.485 	 101.115 	 -25.445 	
-424 	 276 	 -1378 	78.085 	 96.88 	 -36.4 	
-442 	 271 	 -1384 	94.29 	 90.02 	 -35.14 	
-391 	 264 	 -1445 	112.35 	 80.43 	 -23.24 	
-318 	 282 	 -1529 	131.74 	 70 	 -6.72 	
-253 	 296 	 -1534 	150.64 	 58.975 	 8.33 	
-198 	 230 	 -1545 	166.425 	 48.02 	 17.675 	
-195 	 243 	 -1582 	181.79 	 37.065 	 20.125 	
-207 	 192 	 -1540 	194.32 	 26.11 	 15.995 	
-216 	 105 	 -1509 	204.365 	 15.155 	 6.055 	
-234 	 56 	 -1472 	212.52 	 4.76 	 -6.195 	
-265 	 24 	 -1432 	218.82 	 -5.18 	 -15.645 	
-281 	 -16 	 -1421 	222.705 	 -14.945 	 -19.53 	
-273 	 -37 	 -1411 	224.63 	 -24.395 	 -17.78 	
-257 	 -83 	 -1388 	224.42 	 -33.285 	 -11.235 	
-213 	 -113 	 -1356 	222.46 	 -41.755 	 -1.155 	
-171 	 -124 	 -1327 	218.715 	 -49.385 	 9.59 	
-133 	 -154 	 -1291 	213.535 	 -56.315 	 17.71 	
-144 	 -164 	 -1255 	207.585 	 -62.335 	 21.77 	
-188 	 -147 	 -1231 	201.075 	 -67.83 	 21.945 	
-253 	 -251 	 -1162 	194.46 	 -72.905 	 19.25 	
-296 	 -380 	 -1106 	189.175 	 -77.98 	 13.51 	
-309 	 -517 	 -1074 	185.745 	 -82.88 	 3.99 	
-314 	 -608 	 -1044 	184.555 	 -86.94 	 -8.785 	
-303 	 -661 	 -1021 	184.66 	 -90.23 	 -21.105 	
-318 	 -704 	 -1013 	185.92 	 -92.61 	 -27.475 	
-325 	 -717 	 -989 	187.985 	 -94.955 	 -26.075 	
-386 	 -782 	 -932 	189.945 	 -96.565 	 -20.09 	
-489 	 -912 	 -819 	191.38 	 -97.685 	 -15.015 	
-692 	 -972 	 -593 	193.375 	 -98.875 	 -16.345 	
-1179 	 -1238 	 -110 	191.765 	 -99.61 	 -22.89 	
-1703 	 -1437 	 816 	186.06 	 -102.55 	 -28.35 	
-1776 	 -1920 	 1604 	160.195 	 -102.585 	 -21.735 	
-1304 	 -864 	 1453 	102.025 	 -93.415 	 -20.72 	
-915 	 175 	 1197 	13.3 	 -67.025 	 -41.335 	
-488 	 612 	 1333 	-107.835 	 -28.805 	 -43.785 	
813 	 736 	 1111 	-258.3 	 22.715 	 -7.875 	
1421 	 1069 	 550 	-415.1 	 88.655 	 46.445 	
1820 	 1287 	 -570 	-568.12 	 160.475 	 118.545 	
1698 	 1444 	 -1445 	-686.14 	 234.745 	 180.04 	
1635 	 1090 	 -2114 	-772.835 	 295.435 	 186.83 	
990 	 805 	 -2221 	-804.65 	 332.85 	 134.47 	
377 	 516 	 -1456 	-785.33 	 325.465 	 72.275 	
-340 	 4 	 -505 	-725.76 	 282.065 	 42.875 	
-750 	 -537 	 126 	-611.835 	 200.725 	 22.365 	
-940 	 -557 	 233 	-470.785 	 111.895 	 -5.39 	
-1096 	 -9 	 242 	-315.525 	 18.515 	 -17.535 	
-668 	 205 	 -130 	-170.625 	 -67.445 	 -24.325 	
-466 	 742 	 -314 	-42.035 	 -127.82 	 -68.18 	
250 	 1185 	 -908 	54.95 	 -177.975 	 -114.205 	
275 	 1295 	 -1190 	127.015 	 -183.155 	 -110.74 	
399 	 1165 	 -1297 	167.58 	 -173.705 	 -75.495 	
485 	 887 	 -1422 	182.595 	 -144.795 	 -56.35 	
525 	 1021 	 -1342 	182.7 	 -104.58 	 -71.645 	
459 	 1001 	 -1341 	166.145 	 -58.24 	 -91.035 	
106 	 1076 	 -1250 	144.165 	 -10.92 	 -79.555 	
-106 	 915 	 -1123 	117.075 	 26.67 	 -37.975 	
-427 	 681 	 -1012 	90.755 	 58.065 	 8.435 	
-509 	 522 	 -1029 	69.055 	 77.875 	 40.425 	
-584 	 488 	 -1107 	51.87 	 92.925 	 56.14 	
-562 	 559 	 -1219 	38.92 	 102.06 	 62.265 	
-461 	 592 	 -1331 	28.175 	 108.115 	 58.73 	
-325 	 609 	 -1459 	21.735 	 110.81 	 41.265 	
-254 	 563 	 -1536 	18.655 	 111.685 	 15.435 	
-215 	 499 	 -1554 	21.455 	 109.76 	 -8.61 	
-190 	 321 	 -1531 	28.35 	 104.58 	 -25.655 	
-203 	 273 	 -1478 	42.7 	 96.355 	 -34.93 	
-236 	 190 	 -1400 	61.18 	 85.085 	 -33.18 	
-235 	 111 	 -1369 	83.545 	 71.295 	 -19.6 	
-223 	 22 	 -1312 	108.29 	 56.105 	 0.28 	
-206 	 -37 	 -1307 	134.05 	 39.9 	 18.865 	
-193 	 -127 	 -1291 	158.235 	 23.52 	 30.52 	
-183 	 -215 	 -1311 	180.495 	 7.595 	 31.605 	
-177 	 -278 	 -1331 	200.06 	 -7.035 	 21.315 	
-127 	 -259 	 -1327 	216.755 	 -20.195 	 0.805 	
-101 	 -227 	 -1263 	229.005 	 -30.66 	 -24.08 	
-95 	 -190 	 -1250 	237.615 	 -39.62 	 -41.895 	
-81 	 -149 	 -1231 	242.935 	 -47.11 	 -43.925 	
-50 	 -124 	 -1219 	245.42 	 -54.215 	 -33.145 	
-3 	 -125 	 -1205 	245 	 -60.585 	 -17.85 	
15 	 -146 	 -1177 	242.2 	 -65.765 	 -4.725 	
17 	 -233 	 -1118 	237.86 	 -70.105 	 2.345 	
-6 	 -317 	 -1052 	232.995 	 -73.185 	 1.645 	
-27 	 -378 	 -1005 	228.165 	 -75.495 	 -8.05 	
-51 	 -454 	 -953 	223.58 	 -76.65 	 -24.92 	
-54 	 -511 	 -919 	219.45 	 -76.825 	 -44.555 	
-51 	 -530 	 -897 	216.125 	 -75.95 	 -61.81 	
-46 	 -552 	 -891 	213.01 	 -74.48 	 -72.59 	
-50 	 -575 	 -901 	210.14 	 -72.555 	 -75.005 	
-46 	 -601 	 -894 	207.795 	 -70.735 	 -70.175 	
-40 	 -641 	 -860 	205.695 	 -69.055 	 -60.97 	
-45 	 -702 	 -824 	203.98 	 -67.48 	 -49.98 	
-47 	 -760 	 -774 	202.93 	 -65.94 	 -38.22 	
-50 	 -796 	 -708 	202.65 	 -64.715 	 -26.845 	
-37 	 -789 	 -612 	202.755 	 -63.665 	 -17.045 	
-184 	 -819 	 -375 	202.405 	 -61.915 	 -7.14 	
-497 	 -906 	 34 	201.46 	 -62.615 	 6.16 	
-1169 	 -1443 	 716 	197.82 	 -65.485 	 26.075 	
-2063 	 -2055 	 1842 	191.03 	 -75.67 	 50.05 	
-2129 	 -1877 	 2415 	164.185 	 -89.775 	 60.27 	
-1269 	 109 	 2132 	101.01 	 -88.97 	 17.36 	
-1172 	 40 	 2133 	-9.975 	 -71.995 	 -68.11 	
-366 	 1122 	 2361 	-138.005 	 -49.525 	 -110.145 	
329 	 1158 	 1806 	-314.72 	 -8.785 	 -58.38 	
1016 	 2133 	 423 	-494.13 	 31.395 	 35.735 	
1259 	 2417 	 -1026 	-677.075 	 94.605 	 142.66 	
1521 	 2543 	 -2617 	-833.665 	 163.485 	 225.47 	
1530 	 2306 	 -3843 	-947.66 	 236.985 	 276.57 	
920 	 1046 	 -4035 	-1004.85 	 303.45 	 284.515 	
483 	 161 	 -3168 	-989.66 	 331.03 	 220.185 	
-470 	 -911 	 -1552 	-916.79 	 312.725 	 128.73 	
-974 	 -842 	 -258 	-785.645 	 247.31 	 78.82 	
-771 	 -1537 	 277 	-630.735 	 150.255 	 31.64 	
-712 	 -659 	 333 	-440.93 	 49.28 	 -38.675 	
-204 	 -72 	 66 	-264.215 	 -49.875 	 -85.68 	
122 	 786 	 -295 	-103.25 	 -128.275 	 -110.985 	
439 	 1090 	 -853 	19.53 	 -184.38 	 -122.325 	
551 	 1435 	 -1300 	111.79 	 -208.215 	 -109.235 	
247 	 1269 	 -1552 	166.705 	 -210 	 -72.38 	
431 	 1134 	 -1708 	195.58 	 -199.115 	 -46.165 	
439 	 1051 	 -1667 	202.055 	 -168.735 	 -49.21 	
469 	 1016 	 -1590 	193.305 	 -132.86 	 -64.12 	
180 	 999 	 -1360 	174.65 	 -89.46 	 -57.19 	
21 	 896 	 -1203 	148.96 	 -50.26 	 -24.395 	
-94 	 775 	 -1080 	121.625 	 -13.405 	 10.29 	
-182 	 600 	 -1056 	92.995 	 19.04 	 28.525 	
-220 	 582 	 -1104 	67.41 	 47.775 	 31.605 	
-254 	 585 	 -1189 	44.065 	 71.855 	 33.425 	
-312 	 581 	 -1290 	24.01 	 92.085 	 44.87 	
-326 	 578 	 -1338 	9.52 	 106.75 	 61.67 	
-356 	 465 	 -1396 	-0.315 	 116.83 	 72.205 	
-404 	 394 	 -1425 	-2.555 	 122.01 	 70.595 	
-456 	 255 	 -1452 	0.805 	 121.905 	 61.18 	
-502 	 241 	 -1494 	11.655 	 117.075 	 51.45 	
-531 	 191 	 -1546 	26.81 	 107.66 	 46.445 	
-515 	 213 	 -1572 	47.425 	 95.13 	 43.715 	
-449 	 164 	 -1565 	69.37 	 80.08 	 37.975 	
-407 	 138 	 -1617 	93.695 	 63.63 	 28.525 	
-398 	 98 	 -1618 	118.125 	 46.305 	 19.705 	
-412 	 78 	 -1642 	142.275 	 28.42 	 14.84 	
-410 	 43 	 -1654 	165.27 	 9.625 	 13.335 	
-401 	 12 	 -1638 	186.165 	 -8.61 	 10.92 	
-392 	 -32 	 -1615 	203.7 	 -25.585 	 4.41 	
-321 	 1 	 -1597 	218.715 	 -41.125 	 -6.3 	
-247 	 0 	 -1561 	229.915 	 -54.145 	 -17.675 	
-189 	 7 	 -1526 	237.965 	 -65.065 	 -25.095 	
-131 	 18 	 -1509 	242.935 	 -74.13 	 -25.585 	
-114 	 30 	 -1488 	245.21 	 -81.935 	 -18.9 	
-107 	 11 	 -1453 	244.79 	 -89.39 	 -7.595 	
-113 	 -59 	 -1382 	242.06 	 -96.46 	 2.695 	
-106 	 -146 	 -1322 	238.14 	 -102.9 	 7.175 	
-107 	 -236 	 -1256 	233.52 	 -108.325 	 5.46 	
-105 	 -296 	 -1196 	229.145 	 -112.875 	 -1.365 	
-137 	 -358 	 -1125 	224.49 	 -116.095 	 -11.305 	
-153 	 -377 	 -1075 	220.185 	 -118.65 	 -22.015 	
-183 	 -417 	 -1021 	215.985 	 -120.225 	 -30.905 	
-197 	 -465 	 -955 	212.135 	 -121.345 	 -36.505 	
-204 	 -515 	 -900 	208.565 	 -121.94 	 -38.815 	
-179 	 -569 	 -843 	205.31 	 -121.87 	 -38.85 	
-152 	 -602 	 -780 	202.44 	 -120.925 	 -38.71 	
-117 	 -665 	 -746 	199.5 	 -119.245 	 -39.165 	
-145 	 -676 	 -698 	197.26 	 -116.55 	 -38.92 	
-170 	 -674 	 -599 	194.495 	 -113.61 	 -37.03 	
-239 	 -764 	 -539 	190.925 	 -110.145 	 -32.83 	
-213 	 -713 	 -438 	188.335 	 -107.415 	 -29.365 	
-297 	 -754 	 -154 	183.12 	 -102.41 	 -28.875 	
-526 	 -1035 	 263 	175.735 	 -97.335 	 -31.115 	
-661 	 -1382 	 847 	165.795 	 -91.525 	 -36.715 	
-645 	 -1503 	 1608 	149.03 	 -82.74 	 -48.125 	
-735 	 -988 	 2360 	111.755 	 -69.3 	 -62.335 	
-957 	 -39 	 2948 	43.645 	 -49.385 	 -67.375 	
-513 	 746 	 3278 	-58.31 	 -24.885 	 -45.08 	
590 	 1125 	 2906 	-193.725 	 9.87 	 7.035 	
990 	 1850 	 1872 	-354.585 	 57.26 	 73.92 	
1135 	 2585 	 415 	-526.05 	 117.215 	 148.295 	
1010 	 3110 	 -1134 	-694.575 	 188.02 	 233.03 	
812 	 3378 	 -2655 	-838.985 	 258.02 	 315.245 	
401 	 2791 	 -3575 	-944.72 	 332.045 	 364.07 	
-417 	 1515 	 -3647 	-993.405 	 391.09 	 348.95 	
-708 	 590 	 -2679 	-971.285 	 404.145 	 258.58 	
-1429 	 -1146 	 -1172 	-902.72 	 373.905 	 114.87 	
-1189 	 -1153 	 124 	-766.22 	 280.98 	 -39.865 	
-952 	 -1364 	 788 	-608.65 	 162.26 	 -160.895 	
-201 	 -302 	 492 	-415.975 	 43.085 	 -233.73 	
-26 	 569 	 112 	-229.46 	 -54.67 	 -228.48 	
603 	 1438 	 -537 	-60.305 	 -135.625 	 -153.965 	
524 	 1717 	 -1200 	64.925 	 -175.56 	 -70.7 	
492 	 1711 	 -1708 	144.2 	 -200.34 	 -23.765 	
316 	 1547 	 -2004 	185.36 	 -199.78 	 -16.8 	
423 	 1634 	 -2099 	196.875 	 -185.71 	 -39.025 	
335 	 1662 	 -2084 	185.22 	 -154.7 	 -69.09 	
173 	 1590 	 -1971 	161.665 	 -119.245 	 -91.49 	
50 	 1412 	 -1756 	130.9 	 -82.985 	 -99.295 	
-183 	 1255 	 -1479 	98.455 	 -47.705 	 -87.64 	
-246 	 881 	 -1399 	67.235 	 -19.495 	 -54.39 	
-407 	 722 	 -1371 	46.2 	 5.67 	 -8.085 	
-355 	 501 	 -1351 	32.06 	 23.275 	 30.24 	
-406 	 270 	 -1330 	24.29 	 40.04 	 46.865 	
-471 	 207 	 -1316 	24.36 	 51.66 	 49.42 	
-567 	 143 	 -1362 	30.73 	 58.87 	 51.8 	
-680 	 189 	 -1348 	43.33 	 61.53 	 56.245 	
-752 	 184 	 -1334 	57.365 	 59.395 	 58.17 	
-802 	 236 	 -1348 	74.34 	 54.88 	 50.4 	
-738 	 279 	 -1395 	90.755 	 47.705 	 28.595 	
-670 	 336 	 -1460 	107.24 	 40.11 	 -3.57 	
-677 	 366 	 -1445 	122.185 	 33.39 	 -31.955 	
-650 	 391 	 -1442 	136.01 	 25.725 	 -43.015 	
-579 	 390 	 -1464 	149.31 	 17.64 	 -36.155 	
-451 	 363 	 -1438 	162.925 	 9.415 	 -22.715 	
-328 	 219 	 -1396 	174.615 	 2.38 	 -13.51 	
-272 	 107 	 -1362 	187.46 	 -3.36 	 -11.62 	
-236 	 -15 	 -1299 	199.29 	 -8.05 	 -15.26 	
-226 	 -62 	 -1255 	211.505 	 -12.11 	 -23.415 	
-225 	 -104 	 -1184 	221.9 	 -15.47 	 -33.6 	
-218 	 -108 	 -1144 	231.175 	 -18.34 	 -41.65 	
-227 	 -83 	 -1109 	238.42 	 -20.895 	 -43.4 	
-233 	 -74 	 -1075 	243.88 	 -23.8 	 -37.695 	
-264 	 -118 	 -1046 	247.065 	 -26.74 	 -26.6 	
-250 	 -159 	 -1030 	249.2 	 -30.66 	 -15.085 	
-253 	 -228 	 -1005 	250.18 	 -34.265 	 -8.12 	
-267 	 -292 	 -969 	250.355 	 -37.73 	 -7.35 	
-322 	 -333 	 -923 	249.795 	 -41.02 	 -10.955 	
-366 	 -387 	 -902 	248.36 	 -44.45 	 -16.555 	
-381 	 -389 	 -880 	247.03 	 -47.67 	 -24.57 	
-357 	 -428 	 -828 	244.72 	 -50.4 	 -35.63 	
-346 	 -519 	 -788 	242.34 	 -52.045 	 -46.97 	
-321 	 -574 	 -756 	240.625 	 -53.06 	 -54.67 	
-304 	 -603 	 -722 	239.225 	 -53.445 	 -55.72 	
-307 	 -619 	 -677 	238.035 	 -53.655 	 -49.525 	
-343 	 -671 	 -627 	236.46 	 -53.795 	 -38.01 	
-379 	 -735 	 -559 	234.99 	 -54.25 	 -25.48 	
-432 	 -769 	 -468 	232.715 	 -54.775 	 -17.885 	
-406 	 -768 	 -345 	229.67 	 -55.09 	 -21.35 	
-439 	 -730 	 -85 	224.385 	 -53.48 	 -35.525 	
-570 	 -899 	 362 	214.725 	 -50.4 	 -49.245 	
-832 	 -1472 	 1166 	199.185 	 -45.325 	 -42.98 	
-1439 	 -1255 	 2286 	176.33 	 -43.505 	 -9.345 	
-1686 	 -785 	 3036 	122.78 	 -39.095 	 32.935 	
-748 	 44 	 2968 	34.79 	 -24.22 	 31.15 	
705 	 180 	 2563 	-88.41 	 15.19 	 -44.625 	
1503 	 1673 	 1881 	-235.725 	 62.51 	 -97.93 	
1477 	 2491 	 686 	-415.905 	 122.71 	 8.365 	
1423 	 2832 	 -867 	-594.265 	 188.44 	 194.18 	
1325 	 3007 	 -2422 	-754.915 	 261.135 	 291.76 	
767 	 2961 	 -3530 	-879.41 	 336.21 	 292.145 	
-350 	 2045 	 -3941 	-965.335 	 393.05 	 274.47 	
-1045 	 715 	 -3452 	-977.13 	 411.53 	 243.95 	
-1272 	 -616 	 -1939 	-925.855 	 389.97 	 164.29 	
-1125 	 -1178 	 -449 	-818.545 	 331.38 	 34.895 	
-729 	 -1176 	 293 	-687.155 	 238.805 	 -99.82 	
-39 	 -894 	 210 	-513.975 	 134.855 	 -185.36 	
346 	 357 	 174 	-324.905 	 37.345 	 -188.51 	
820 	 762 	 -160 	-168.315 	 -38.64 	 -98.84 	
604 	 1161 	 -543 	-28.035 	 -86.205 	 -2.275 	
790 	 986 	 -1092 	70.385 	 -131.11 	 23.905 	
196 	 1082 	 -1379 	139.265 	 -148.225 	 -3.535 	
12 	 898 	 -1672 	173.705 	 -160.02 	 -32.76 	
-183 	 1072 	 -1699 	189.35 	 -153.79 	 -55.23 	
-82 	 1134 	 -1656 	181.965 	 -141.015 	 -79.625 	
35 	 1215 	 -1577 	161.28 	 -117.285 	 -103.81 	
78 	 1221 	 -1483 	131.39 	 -88.83 	 -108.85 	
136 	 1160 	 -1400 	98.735 	 -60.025 	 -79.52 	
70 	 1006 	 -1273 	66.08 	 -31.255 	 -25.97 	
82 	 766 	 -1261 	35.42 	 -6.3 	 22.225 	
-8 	 618 	 -1301 	11.97 	 17.535 	 45.15 	
-51 	 551 	 -1354 	-4.445 	 36.295 	 46.445 	
-206 	 461 	 -1387 	-15.435 	 52.85 	 41.825 	
-329 	 464 	 -1400 	-19.25 	 63.665 	 40.81 	
-441 	 398 	 -1401 	-16.59 	 69.475 	 42.14 	
-451 	 383 	 -1362 	-8.925 	 70.595 	 37.345 	
-428 	 373 	 -1362 	3.01 	 68.425 	 23.275 	
-413 	 416 	 -1391 	19.74 	 63.455 	 7.035 	
-440 	 414 	 -1374 	38.395 	 56.21 	 -0.35 	
-456 	 328 	 -1374 	59.185 	 46.48 	 5.775 	
-447 	 312 	 -1415 	82.495 	 35.245 	 19.6 	
-358 	 257 	 -1474 	106.085 	 23.59 	 28.91 	
-297 	 247 	 -1498 	129.64 	 12.95 	 26.705 	
-274 	 223 	 -1483 	150.78 	 3.08 	 15.19 	
-251 	 213 	 -1508 	170.065 	 -5.95 	 0.525 	
-266 	 236 	 -1509 	187.81 	 -14 	 -11.06 	
-278 	 228 	 -1481 	202.44 	 -22.575 	 -14.42 	
-295 	 173 	 -1487 	213.78 	 -31.045 	 -9.485 	
-262 	 152 	 -1523 	223.405 	 -39.935 	 -1.75 	
-266 	 66 	 -1534 	230.335 	 -48.16 	 3.605 	
-265 	 -27 	 -1503 	235.34 	 -56.14 	 4.13 	
-282 	 -102 	 -1477 	238.455 	 -63.07 	 -1.155 	
-293 	 -162 	 -1423 	240.94 	 -69.405 	 -13.3 	
-297 	 -257 	 -1364 	241.85 	 -74.27 	 -32.48 	
-285 	 -306 	 -1324 	242.585 	 -77.98 	 -55.79 	
-286 	 -323 	 -1270 	242.865 	 -80.185 	 -76.37 	
-284 	 -337 	 -1218 	242.41 	 -81.445 	 -86.765 	
-288 	 -352 	 -1182 	241.43 	 -82.46 	 -83.93 	
-258 	 -351 	 -1124 	239.995 	 -83.755 	 -71.785 	
-295 	 -391 	 -1034 	237.58 	 -84.385 	 -56.105 	
-347 	 -505 	 -966 	234.255 	 -85.365 	 -41.475 	
-361 	 -597 	 -920 	231.35 	 -86.31 	 -32.305 	
-314 	 -680 	 -887 	228.235 	 -86.625 	 -32.865 	
-251 	 -751 	 -869 	225.33 	 -85.155 	 -45.325 	
-200 	 -798 	 -824 	222.635 	 -81.585 	 -66.29 	
-214 	 -863 	 -723 	220.36 	 -76.195 	 -88.935 	
-303 	 -898 	 -513 	219.1 	 -70.455 	 -106.96 	
-523 	 -1080 	 -212 	216.79 	 -64.575 	 -116.97 	
-680 	 -1523 	 212 	214.55 	 -60.48 	 -120.505 	
-682 	 -2028 	 801 	211.68 	 -57.155 	 -124.215 	
-773 	 -2223 	 1696 	203.35 	 -52.885 	 -131.565 	
-1086 	 -1885 	 2602 	178.955 	 -47.775 	 -133.7 	
-765 	 -474 	 2933 	124.075 	 -42.21 	 -117.46 	
-464 	 916 	 2816 	23.38 	 -29.68 	 -74.55 	
205 	 1609 	 2422 	-111.58 	 -18.69 	 -15.435 	
361 	 2172 	 1741 	-277.76 	 6.055 	 47.145 	
417 	 2977 	 585 	-464.38 	 35.035 	 105.245 	
486 	 3825 	 -1014 	-652.435 	 69.93 	 163.73 	
507 	 4514 	 -2862 	-827.61 	 111.02 	 231.21 	
597 	 4425 	 -4508 	-972.615 	 158.76 	 298.305 	
684 	 2549 	 -4894 	-1064.28 	 215.775 	 327.005 	
397 	 180 	 -3691 	-1068.66 	 256.13 	 277.445 	
-340 	 -1161 	 -1609 	-1004.36 	 258.545 	 165.445 	
-755 	 -2154 	 -287 	-894.88 	 219.87 	 42.665 	
-854 	 -2684 	 55 	-720.685 	 136.5 	 -55.965 	
-498 	 -1627 	 622 	-506.835 	 42.385 	 -79.275 	
-510 	 -899 	 629 	-315.105 	 -30.59 	 -45.92 	
106 	 -127 	 288 	-139.65 	 -95.83 	 -15.785 	
243 	 919 	 -91 	7.105 	 -140.98 	 -10.675 	
834 	 1367 	 -945 	108.22 	 -171.99 	 -11.375 	
570 	 1624 	 -1305 	166.705 	 -163.695 	 -6.3 	
447 	 1523 	 -1588 	188.72 	 -150.465 	 7.49 	
233 	 1289 	 -1648 	188.16 	 -122.115 	 10.71 	
219 	 1212 	 -1571 	169.47 	 -88.865 	 -11.165 	
70 	 1179 	 -1470 	139.23 	 -49.035 	 -38.15 	
-46 	 1226 	 -1321 	103.18 	 -11.13 	 -45.605 	
-93 	 1174 	 -1210 	64.19 	 24.01 	 -29.225 	
-156 	 1161 	 -1103 	26.18 	 54.32 	 3.605 	
-157 	 948 	 -1143 	-8.225 	 78.82 	 48.965 	
-175 	 885 	 -1192 	-33.11 	 99.61 	 91.91 	
-135 	 738 	 -1255 	-52.43 	 114.905 	 112.945 	
-219 	 674 	 -1300 	-63.035 	 127.54 	 108.08 	
-268 	 587 	 -1319 	-67.34 	 133.07 	 89.985 	
-370 	 568 	 -1269 	-63.56 	 133.42 	 72.17 	
-412 	 583 	 -1188 	-54.635 	 126.805 	 60.305 	
-429 	 649 	 -1182 	-39.76 	 115.43 	 53.865 	
-405 	 704 	 -1156 	-20.335 	 99.505 	 48.475 	
-355 	 733 	 -1137 	1.995 	 80.92 	 40.635 	
-367 	 702 	 -1184 	25.9 	 61.215 	 32.48 	
-338 	 691 	 -1296 	53.095 	 40.32 	 27.055 	
-255 	 640 	 -1380 	80.605 	 19.46 	 19.53 	
-184 	 612 	 -1510 	108.885 	 -0.315 	 6.37 	
-164 	 666 	 -1575 	136.57 	 -17.745 	 -7.735 	
-159 	 694 	 -1626 	162.12 	 -34.195 	 -18.235 	
-146 	 754 	 -1670 	185.395 	 -49.105 	 -23.38 	
-151 	 734 	 -1681 	205.345 	 -62.79 	 -25.48 	
-132 	 654 	 -1728 	222.04 	 -74.935 	 -28.35 	
-122 	 609 	 -1734 	236.075 	 -84.91 	 -30.8 	
-107 	 518 	 -1706 	246.61 	 -93.345 	 -31.08 	
-86 	 373 	 -1695 	253.785 	 -100.03 	 -30.1 	
-62 	 286 	 -1686 	259.49 	 -104.79 	 -29.47 	
-62 	 183 	 -1639 	262.395 	 -107.66 	 -29.925 	
-54 	 128 	 -1593 	264.075 	 -109.445 	 -34.335 	
-70 	 47 	 -1516 	263.515 	 -109.69 	 -43.75 	
-110 	 1 	 -1435 	262.325 	 -109.095 	 -54.67 	
-155 	 -31 	 -1341 	260.26 	 -108.36 	 -60.83 	
-195 	 -71 	 -1271 	257.39 	 -107.695 	 -58.31 	
-213 	 -100 	 -1216 	254.135 	 -107.66 	 -49.42 	
-197 	 -167 	 -1160 	250.285 	 -107.73 	 -40.25 	
-174 	 -275 	 -1111 	246.085 	 -107.1 	 -35.21 	
-159 	 -345 	 -1053 	242.62 	 -105.77 	 -35.07 	
-173 	 -401 	 -988 	239.365 	 -103.705 	 -38.815 	
-255 	 -498 	 -929 	236.355 	 -101.045 	 -45.36 	
-304 	 -565 	 -877 	234.325 	 -98.7 	 -55.335 	
-324 	 -610 	 -826 	233.205 	 -95.865 	 -68.565 	
-345 	 -672 	 -728 	232.085 	 -92.365 	 -80.29 	
-469 	 -813 	 -644 	231.35 	 -88.9 	 -84.56 	
-498 	 -870 	 -547 	231.455 	 -86.065 	 -83.895 	
-649 	 -985 	 -204 	229.81 	 -81.795 	 -84.595 	
-957 	 -1365 	 344 	224.175 	 -77.84 	 -91.245 	
-1055 	 -1712 	 1032 	210.77 	 -73.745 	 -107.94 	
-1238 	 -2097 	 1553 	181.65 	 -67.48 	 -129.255 	
-1282 	 -1233 	 1857 	131.705 	 -59.64 	 -140.735 	
-1162 	 -408 	 1750 	44.1 	 -49.175 	 -124.11 	
-704 	 560 	 1694 	-73.36 	 -38.045 	 -87.115 	
-86 	 834 	 1652 	-223.475 	 -21.35 	 -35.875 	
604 	 1545 	 1006 	-391.755 	 6.37 	 25.97 	
1039 	 2109 	 -262 	-571.55 	 42.98 	 97.335 	
1162 	 2818 	 -1486 	-729.645 	 87.08 	 177.24 	
1171 	 2935 	 -2681 	-864.885 	 140.245 	 239.61 	
999 	 2038 	 -3366 	-954.275 	 190.435 	 246.645 	
85 	 609 	 -2471 	-964.81 	 217.07 	 213.535 	
-683 	 -517 	 -1015 	-915.39 	 213.325 	 175.455 	
-1006 	 -1745 	 26 	-796.425 	 171.535 	 113.155 	
-730 	 -1432 	 475 	-621.845 	 87.605 	 -12.495 	
-775 	 -886 	 679 	-437.85 	 7.28 	 -104.475 	
-313 	 -17 	 344 	-245.07 	 -71.435 	 -115.535 	
331 	 452 	 -166 	-70.35 	 -128.59 	 -99.155 	
631 	 1182 	 -472 	72.205 	 -162.54 	 -93.66 	
1210 	 1060 	 -1156 	167.44 	 -171.99 	 -68.88 	
829 	 991 	 -1402 	232.19 	 -148.015 	 -24.15 	
779 	 640 	 -1535 	259.35 	 -121.03 	 14.91 	
519 	 837 	 -1439 	263.865 	 -78.995 	 16.38 	
277 	 880 	 -1376 	239.155 	 -35.455 	 -1.085 	
-149 	 1040 	 -1235 	200.55 	 9.555 	 1.54 	
-389 	 1106 	 -1085 	148.855 	 47.18 	 35.245 	
-446 	 1046 	 -1027 	91.595 	 78.715 	 76.65 	
-479 	 979 	 -1030 	35.105 	 106.05 	 104.02 	
-399 	 878 	 -1122 	-13.965 	 126.98 	 116.655 	
-323 	 768 	 -1133 	-52.36 	 144.795 	 121.345 	
-263 	 469 	 -1128 	-80.395 	 157.64 	 120.68 	
-247 	 271 	 -1098 	-93.17 	 164.01 	 116.235 	
-307 	 156 	 -1039 	-92.085 	 163.275 	 114.03 	
-360 	 132 	 -966 	-79.905 	 155.435 	 114.52 	
-370 	 178 	 -934 	-60.48 	 141.33 	 113.365 	
-354 	 295 	 -947 	-37.695 	 122.815 	 108.815 	
-302 	 450 	 -994 	-14.21 	 101.255 	 101.08 	
-205 	 622 	 -1042 	6.72 	 78.54 	 88.55 	
-125 	 756 	 -1134 	23.52 	 56.385 	 71.225 	
-66 	 791 	 -1244 	37.975 	 34.545 	 51.765 	
-76 	 704 	 -1333 	53.725 	 13.58 	 31.885 	
-78 	 495 	 -1369 	69.615 	 -6.195 	 11.48 	
-108 	 336 	 -1424 	90.825 	 -25.13 	 -8.89 	
-97 	 237 	 -1372 	114.31 	 -42.315 	 -28.105 	
-56 	 351 	 -1453 	139.79 	 -57.995 	 -41.65 	
-39 	 512 	 -1540 	164.745 	 -70.945 	 -38.675 	
-20 	 615 	 -1617 	185.64 	 -82.075 	 -16.24 	
-2 	 643 	 -1661 	200.935 	 -91.35 	 14.035 	
51 	 615 	 -1735 	211.05 	 -99.12 	 37.765 	
76 	 527 	 -1769 	217.35 	 -104.58 	 47.95 	
78 	 399 	 -1730 	220.675 	 -107.975 	 45.78 	
43 	 234 	 -1644 	222.18 	 -109.41 	 36.61 	
2 	 72 	 -1556 	223.825 	 -109.9 	 25.025 	
-37 	 -17 	 -1468 	225.925 	 -109.34 	 13.615 	
-65 	 -82 	 -1378 	227.64 	 -108.535 	 3.22 	
-54 	 -132 	 -1314 	228.585 	 -107.275 	 -6.51 	
-47 	 -144 	 -1257 	228.76 	 -104.965 	 -14.77 	
-64 	 -163 	 -1183 	228.06 	 -102.62 	 -19.565 	
-94 	 -222 	 -1106 	226.38 	 -100.52 	 -19.635 	
-115 	 -250 	 -1054 	224.42 	 -98.805 	 -15.96 	
-158 	 -309 	 -986 	222.355 	 -97.79 	 -10.08 	
-222 	 -359 	 -926 	220.395 	 -97.58 	 -3.325 	
-303 	 -389 	 -886 	218.855 	 -98.21 	 2.275 	
-375 	 -458 	 -823 	217.56 	 -99.505 	 3.29 	
-407 	 -561 	 -758 	216.86 	 -101.15 	 -2.625 	
-441 	 -679 	 -723 	217 	 -102.2 	 -15.33 	
-399 	 -733 	 -736 	218.68 	 -103.11 	 -33.145 	
-416 	 -762 	 -692 	220.745 	 -102.13 	 -52.36 	
-447 	 -785 	 -654 	223.02 	 -100.695 	 -68.355 	
-526 	 -863 	 -527 	226.205 	 -99.085 	 -78.085 	
-763 	 -1144 	 -253 	229.67 	 -97.3 	 -81.27 	
-1230 	 -1687 	 263 	233.415 	 -96.11 	 -82.985 	
-1383 	 -1940 	 1102 	235.935 	 -97.475 	 -94.5 	
-1641 	 -2010 	 2207 	227.395 	 -95.2 	 -120.785 	
-1828 	 -924 	 2690 	188.615 	 -87.535 	 -161.07 	
-1800 	 -331 	 2889 	110.215 	 -74.445 	 -192.92 	
-420 	 947 	 2887 	-0.42 	 -58.485 	 -192.325 	
444 	 1672 	 2606 	-161.35 	 -35.21 	 -117.145 	
872 	 2591 	 1442 	-355.775 	 -0.875 	 32.305 	
1074 	 3239 	 -137 	-562.38 	 49.14 	 167.65 	
1532 	 3953 	 -1987 	-762.825 	 102.515 	 239.085 	
1123 	 4602 	 -4169 	-943.285 	 175.035 	 300.545 	
998 	 4122 	 -5800 	-1077.34 	 244.475 	 354.9 	
588 	 929 	 -5092 	-1133.09 	 309.96 	 322.35 	
-335 	 -805 	 -2793 	-1096.52 	 323.05 	 171.395 	
-1308 	 -2692 	 -684 	-998.095 	 274.96 	 -1.435 	
-1174 	 -2701 	 147 	-823.795 	 164.78 	 -144.62 	
-1037 	 -2154 	 516 	-614.215 	 45.92 	 -156.345 	
-978 	 -1081 	 771 	-388.01 	 -38.255 	 -67.83 	
-49 	 -532 	 275 	-187.145 	 -110.145 	 -22.365 	
487 	 618 	 -109 	-13.93 	 -157.115 	 -58.625 	
794 	 1257 	 -636 	108.99 	 -181.58 	 -78.05 	
1132 	 1656 	 -1259 	190.54 	 -181.44 	 -32.795 	
980 	 1469 	 -1592 	226.45 	 -152.04 	 25.06 	
838 	 1477 	 -1633 	235.655 	 -116.935 	 52.08 	
673 	 1423 	 -1590 	220.815 	 -75.46 	 38.605 	
321 	 1475 	 -1450 	192.675 	 -31.045 	 13.055 	
-169 	 1358 	 -1277 	153.545 	 9.905 	 13.72 	
-494 	 1234 	 -1147 	111.86 	 42.56 	 44.45 	
-639 	 1031 	 -1091 	70.49 	 66.92 	 80.43 	
-701 	 904 	 -1085 	34.79 	 85.47 	 100.695 	
-667 	 859 	 -1062 	4.41 	 99.855 	 101.815 	
-616 	 788 	 -1150 	-20.615 	 110.285 	 90.16 	
-543 	 873 	 -1285 	-35.385 	 115.745 	 72.975 	
-480 	 841 	 -1348 	-42.035 	 116.025 	 54.39 	
-509 	 771 	 -1325 	-40.845 	 112.455 	 36.155 	
-518 	 646 	 -1323 	-30.485 	 102.48 	 22.505 	
-520 	 625 	 -1241 	-11.2 	 88.69 	 16.94 	
-503 	 604 	 -1294 	13.685 	 71.68 	 20.265 	
-431 	 619 	 -1350 	43.54 	 53.55 	 24.08 	
-371 	 565 	 -1427 	73.36 	 35.49 	 18.445 	
-331 	 592 	 -1544 	104.265 	 18.025 	 5.565 	
-296 	 594 	 -1612 	134.085 	 1.89 	 -5.67 	
-302 	 540 	 -1632 	160.895 	 -12.81 	 -11.585 	
-294 	 483 	 -1640 	185.5 	 -27.16 	 -13.23 	
-309 	 451 	 -1630 	208.04 	 -40.39 	 -13.02 	
-307 	 380 	 -1608 	227.01 	 -52.745 	 -13.405 	
-300 	 293 	 -1616 	242.27 	 -63.35 	 -15.015 	
-263 	 267 	 -1651 	254.24 	 -72.345 	 -16.765 	
-217 	 204 	 -1698 	262.535 	 -79.52 	 -17.92 	
-193 	 149 	 -1719 	267.68 	 -84.455 	 -18.48 	
-183 	 107 	 -1689 	270.06 	 -87.955 	 -20.125 	
-214 	 61 	 -1653 	270.13 	 -90.195 	 -25.55 	
-242 	 -41 	 -1569 	268.73 	 -91.315 	 -38.01 	
-239 	 -184 	 -1477 	266.49 	 -91 	 -58.485 	
-233 	 -222 	 -1389 	264.81 	 -89.285 	 -82.88 	
-236 	 -248 	 -1313 	262.22 	 -86.1 	 -102.13 	
-259 	 -247 	 -1258 	259.63 	 -82.6 	 -109.62 	
-256 	 -283 	 -1188 	256.165 	 -79.24 	 -105.175 	
-270 	 -367 	 -1103 	252.245 	 -75.81 	 -93.38 	
-273 	 -424 	 -1026 	248.15 	 -73.36 	 -80.57 	
-297 	 -469 	 -962 	244.16 	 -70.875 	 -71.785 	
-327 	 -562 	 -900 	239.645 	 -68.355 	 -68.67 	
-348 	 -623 	 -841 	235.69 	 -65.94 	 -70.56 	
-371 	 -691 	 -767 	232.085 	 -63.42 	 -75.95 	
-388 	 -774 	 -678 	229.39 	 -60.935 	 -81.795 	
-463 	 -868 	 -486 	227.885 	 -58.45 	 -83.79 	
-697 	 -1014 	 -156 	226.765 	 -56.805 	 -77.42 	
-1000 	 -1149 	 342 	224.63 	 -58.205 	 -63.21 	
-1118 	 -1774 	 881 	217.7 	 -60.585 	 -45.255 	
-1006 	 -2001 	 1649 	207.445 	 -63.21 	 -34.265 	
-919 	 -1776 	 2231 	176.54 	 -60.585 	 -40.18 	
-718 	 -896 	 2087 	113.785 	 -49.665 	 -71.645 	
-607 	 512 	 1985 	18.375 	 -33.495 	 -117.915 	
-347 	 1736 	 1629 	-118.51 	 -17.605 	 -114.59 	
149 	 2598 	 712 	-286.72 	 1.435 	 -17.22 	
609 	 3236 	 -553 	-470.015 	 27.545 	 105.77 	
866 	 3688 	 -1969 	-648.83 	 66.745 	 184.905 	
884 	 4131 	 -3496 	-814.835 	 115.255 	 236.95 	
882 	 3762 	 -4632 	-944.405 	 168.595 	 283.15 	
759 	 1162 	 -4321 	-1013.39 	 221.97 	 285.565 	
463 	 -639 	 -2841 	-1004.89 	 248.885 	 186.305 	
-636 	 -1399 	 -1044 	-943.845 	 232.295 	 48.545 	
-1109 	 -2401 	 -76 	-842.765 	 176.4 	 -26.985 	
-907 	 -2468 	 -45 	-675.605 	 90.825 	 -53.97 	
-695 	 -1686 	 469 	-484.995 	 6.72 	 -43.015 	
-749 	 -1196 	 695 	-312.62 	 -51.205 	 -35.63 	
-12 	 -430 	 290 	-152.005 	 -111.65 	 -77.245 	
322 	 558 	 -44 	-13.755 	 -145.985 	 -119.07 	
541 	 1195 	 -475 	91.385 	 -164.64 	 -92.61 	
890 	 1154 	 -1055 	161 	 -164.605 	 -19.81 	
498 	 878 	 -1116 	196.105 	 -137.935 	 35.21 	
526 	 791 	 -1216 	205.52 	 -112.07 	 49.455 	
346 	 957 	 -1138 	197.19 	 -73.15 	 31.045 	
165 	 1100 	 -1071 	170.135 	 -33.81 	 8.89 	
-193 	 1296 	 -976 	133.665 	 7.245 	 11.48 	
-244 	 1284 	 -948 	88.27 	 40.215 	 34.37 	
-329 	 1223 	 -949 	43.33 	 70.385 	 58.59 	
-323 	 1110 	 -991 	0.035 	 94.045 	 74.585 	
-249 	 1037 	 -1097 	-36.26 	 113.575 	 81.06 	
-208 	 934 	 -1169 	-65.275 	 128.38 	 78.75 	
-150 	 822 	 -1230 	-84.49 	 136.675 	 70.7 	
-237 	 722 	 -1199 	-94.325 	 139.86 	 62.3 	
-266 	 626 	 -1162 	-92.82 	 134.19 	 56.14 	
-360 	 525 	 -1016 	-82.355 	 123.305 	 49.77 	
-402 	 444 	 -983 	-64.785 	 106.085 	 41.055 	
-422 	 494 	 -982 	-39.69 	 85.26 	 31.5 	
-367 	 587 	 -1045 	-11.9 	 61.74 	 23.975 	
-286 	 659 	 -1217 	16.835 	 38.29 	 18.585 	
-209 	 746 	 -1317 	46.585 	 15.96 	 11.725 	
-161 	 657 	 -1426 	73.78 	 -3.85 	 -0.105 	
-135 	 610 	 -1526 	102.76 	 -21.245 	 -17.43 	
-114 	 563 	 -1546 	130.375 	 -36.365 	 -34.86 	
-111 	 606 	 -1571 	157.08 	 -48.685 	 -44.17 	
-90 	 686 	 -1611 	181.965 	 -58.59 	 -42.28 	
-22 	 725 	 -1669 	203.49 	 -66.605 	 -35.665 	
9 	 723 	 -1675 	220.29 	 -71.82 	 -29.365 	
5 	 694 	 -1711 	233.31 	 -75.39 	 -20.545 	
-28 	 649 	 -1707 	244.055 	 -77.735 	 -7.14 	
-81 	 484 	 -1649 	251.23 	 -80.115 	 5.775 	
-101 	 299 	 -1605 	257.005 	 -82.635 	 10.535 	
-142 	 152 	 -1566 	262.255 	 -84.245 	 4.095 	
-149 	 58 	 -1525 	266.77 	 -85.575 	 -10.5 	
-204 	 -15 	 -1491 	270.655 	 -85.61 	 -27.44 	
-189 	 -64 	 -1455 	273.665 	 -85.54 	 -43.4 	
-191 	 -116 	 -1417 	275.73 	 -83.755 	 -56.315 	
-194 	 -134 	 -1381 	276.955 	 -81.48 	 -64.995 	
-198 	 -129 	 -1313 	277.41 	 -78.855 	 -69.02 	
-224 	 -204 	 -1240 	276.5 	 -75.985 	 -68.635 	
-238 	 -292 	 -1172 	275.835 	 -73.64 	 -64.435 	
-249 	 -392 	 -1115 	275.17 	 -71.33 	 -56.56 	
-316 	 -414 	 -1085 	274.925 	 -69.615 	 -45.85 	
-339 	 -408 	 -1041 	274.89 	 -69.16 	 -36.365 	
-414 	 -491 	 -943 	273.805 	 -68.285 	 -33.215 	
-413 	 -658 	 -906 	273.035 	 -67.515 	 -39.27 	
-396 	 -727 	 -858 	273.77 	 -65.835 	 -54.18 	
-361 	 -741 	 -784 	274.26 	 -62.685 	 -74.97 	
-403 	 -736 	 -602 	273.665 	 -57.365 	 -93.66 	
-509 	 -901 	 -301 	270.795 	 -51.625 	 -101.045 	
-697 	 -1210 	 202 	265.09 	 -45.92 	 -90.72 	
-743 	 -1428 	 821 	251.545 	 -41.51 	 -63.7 	
-733 	 -869 	 1517 	217.105 	 -34.755 	 -31.92 	
-1365 	 -292 	 1993 	146.02 	 -25.375 	 -0.63 	
-1281 	 314 	 2382 	45.885 	 -18.55 	 23.24 	
-796 	 448 	 2550 	-89.32 	 1.645 	 28.7 	
-44 	 1117 	 2132 	-252 	 22.4 	 25.025 	
107 	 1830 	 1316 	-430.745 	 55.755 	 70.175 	
435 	 2217 	 -21 	-613.13 	 94.675 	 164.955 	
886 	 2614 	 -1565 	-778.96 	 145.95 	 235.445 	
752 	 2792 	 -3008 	-912.765 	 201.215 	 259.805 	
641 	 2038 	 -3712 	-998.165 	 247.24 	 256.76 	
260 	 972 	 -3133 	-1029.32 	 280.245 	 197.015 	
-149 	 -11 	 -1930 	-996.38 	 264.6 	 88.83 	
-634 	 -1136 	 -466 	-908.32 	 214.9 	 -15.05 	
-455 	 -1608 	 30 	-766.85 	 125.86 	 -139.195 	
-477 	 -1074 	 405 	-588.35 	 29.68 	 -195.23 	
-169 	 -541 	 486 	-393.47 	 -47.11 	 -134.505 	
267 	 -39 	 304 	-210.945 	 -100.625 	 -65.975 	
711 	 478 	 -58 	-57.365 	 -136.885 	 -49.175 	
911 	 1161 	 -496 	67.2 	 -148.085 	 -35.42 	
1040 	 1502 	 -923 	150.78 	 -145.635 	 1.365 	
866 	 1233 	 -1316 	193.725 	 -121.625 	 45.92 	
547 	 1123 	 -1384 	209.3 	 -88.06 	 67.83 	
293 	 1140 	 -1324 	200.935 	 -51.94 	 63.07 	
86 	 1269 	 -1270 	176.995 	 -14.245 	 43.715 	
-160 	 1376 	 -1112 	140.805 	 22.365 	 36.645 	
-334 	 1431 	 -1017 	97.335 	 53.41 	 54.005 	
-435 	 1342 	 -945 	52.92 	 78.785 	 82.215 	
-456 	 1196 	 -934 	12.285 	 97.93 	 99.015 	
-457 	 1083 	 -930 	-20.72 	 112.56 	 99.05 	
-463 	 842 	 -948 	-46.795 	 122.08 	 90.685 	
-445 	 703 	 -951 	-60.725 	 125.825 	 80.08 	
-502 	 552 	 -914 	-65.835 	 124.6 	 71.12 	
-476 	 526 	 -887 	-60.305 	 116.9 	 63.7 	
-488 	 542 	 -828 	-49.42 	 106.155 	 54.565 	
-394 	 624 	 -870 	-33.39 	 91.315 	 40.67 	
-307 	 745 	 -898 	-12.53 	 75.565 	 22.645 	
-224 	 803 	 -881 	9.17 	 59.395 	 4.2 	
-165 	 820 	 -994 	31.325 	 43.33 	 -7.56 	
-121 	 877 	 -1132 	55.685 	 28.28 	 -7.455 	
-67 	 904 	 -1284 	78.715 	 13.72 	 0.49 	
-49 	 906 	 -1462 	101.08 	 0.35 	 8.75 	
-91 	 933 	 -1537 	123.55 	 -12.25 	 15.19 	
-148 	 821 	 -1595 	143.185 	 -24.255 	 19.075 	
-204 	 802 	 -1598 	162.785 	 -35.035 	 15.96 	
-215 	 734 	 -1599 	179.795 	 -45.325 	 2.03 	
-211 	 783 	 -1607 	195.72 	 -53.375 	 -17.29 	
-207 	 753 	 -1650 	207.55 	 -59.36 	 -28.175 	
-182 	 725 	 -1722 	218.19 	 -64.05 	 -25.48 	
-174 	 577 	 -1720 	225.19 	 -67.375 	 -15.225 	
-140 	 431 	 -1735 	230.055 	 -69.86 	 -6.475 	
-140 	 314 	 -1713 	234.22 	 -71.4 	 -2.975 	
-133 	 185 	 -1657 	236.985 	 -72.415 	 -4.34 	
-131 	 104 	 -1603 	239.33 	 -72.73 	 -9.835 	
-128 	 48 	 -1523 	241.115 	 -72.485 	 -19.495 	
-125 	 14 	 -1424 	241.78 	 -71.82 	 -31.64 	
-113 	 -30 	 -1370 	241.185 	 -70.805 	 -42.56 	
-104 	 -10 	 -1310 	240.695 	 -69.335 	 -49.945 	
-115 	 -84 	 -1213 	238.735 	 -67.935 	 -53.06 	
-126 	 -144 	 -1152 	236.635 	 -66.675 	 -52.36 	
-118 	 -187 	 -1101 	234.745 	 -65.94 	 -48.58 	
-117 	 -224 	 -1045 	233.17 	 -65.415 	 -43.225 	
-131 	 -280 	 -982 	231.7 	 -65.275 	 -38.5 	
-154 	 -340 	 -924 	230.37 	 -64.995 	 -35.07 	
-194 	 -392 	 -868 	229.46 	 -65.17 	 -32.83 	
-213 	 -468 	 -832 	228.9 	 -66.01 	 -32.515 	
-266 	 -582 	 -818 	228.9 	 -66.605 	 -34.335 	
-302 	 -697 	 -811 	229.67 	 -67.69 	 -37.695 	
-380 	 -832 	 -785 	230.685 	 -68.425 	 -42.7 	
-429 	 -1005 	 -623 	231.455 	 -69.16 	 -52.115 	
-719 	 -1533 	 -178 	228.27 	 -67.55 	 -66.08 	
-1021 	 -1871 	 601 	218.33 	 -68.04 	 -87.15 	
-1106 	 -1279 	 1570 	188.755 	 -66.29 	 -110.67 	
-2165 	 -627 	 2092 	126.035 	 -61.81 	 -101.85 	
-1501 	 103 	 2369 	28.805 	 -62.335 	 -57.225 	
-458 	 -344 	 2490 	-97.37 	 -51.625 	 -25.585 	
490 	 160 	 2186 	-247.275 	 -32.305 	 -28.98 	
311 	 1351 	 1301 	-418.18 	 2.52 	 7.42 	
684 	 2570 	 -246 	-594.51 	 33.215 	 117.215 	
924 	 3618 	 -1980 	-758.485 	 78.47 	 231.49 	
953 	 4155 	 -3684 	-899.535 	 129.64 	 298.585 	
864 	 3159 	 -4389 	-994.385 	 188.335 	 317.52 	
509 	 816 	 -3212 	-1010.31 	 229.775 	 261.66 	
-133 	 -1342 	 -1105 	-956.025 	 221.48 	 114.415 	
-279 	 -1889 	 -163 	-830.235 	 155.575 	 -111.16 	
-733 	 -1971 	 396 	-663.32 	 61.285 	 -271.25 	
30 	 -1248 	 267 	-448.105 	 -41.79 	 -258.545 	
206 	 -504 	 304 	-228.585 	 -97.475 	 -136.78 	
921 	 -219 	 -9 	-43.82 	 -139.545 	 -44.59 	
912 	 594 	 -377 	110.39 	 -151.76 	 -10.92 	
1135 	 1110 	 -812 	215.985 	 -150.815 	 17.01 	
874 	 1272 	 -1260 	277.375 	 -127.68 	 56.875 	
669 	 1243 	 -1513 	295.505 	 -91.21 	 70.28 	
198 	 1415 	 -1444 	284.13 	 -47.985 	 53.48 	
-38 	 1548 	 -1324 	249.725 	 -6.16 	 22.05 	
-378 	 1524 	 -1146 	199.08 	 36.295 	 3.815 	
-580 	 1426 	 -1004 	143.01 	 70.385 	 14.315 	
-707 	 1215 	 -856 	85.855 	 98.245 	 46.9 	
-721 	 949 	 -787 	33.32 	 118.93 	 78.995 	
-625 	 776 	 -799 	-10.64 	 134.225 	 95.62 	
-502 	 688 	 -823 	-44.03 	 145.32 	 97.16 	
-364 	 617 	 -783 	-68.355 	 152.46 	 90.195 	
-335 	 526 	 -751 	-83.86 	 155.925 	 82.6 	
-281 	 518 	 -727 	-89.005 	 153.055 	 78.505 	
-285 	 531 	 -698 	-86.625 	 146.125 	 78.96 	
-271 	 545 	 -719 	-77.49 	 134.505 	 82.845 	
-278 	 513 	 -729 	-62.86 	 120.085 	 85.225 	
-261 	 487 	 -732 	-45.255 	 103.6 	 79.695 	
-273 	 553 	 -759 	-26.32 	 85.61 	 66.99 	
-288 	 627 	 -840 	-7.28 	 66.57 	 52.08 	
-268 	 735 	 -914 	11.2 	 47.46 	 34.335 	
-211 	 793 	 -1022 	26.635 	 29.61 	 11.725 	
-112 	 895 	 -1125 	42.245 	 13.125 	 -13.265 	
-22 	 878 	 -1195 	55.965 	 -1.47 	 -33.635 	
41 	 921 	 -1288 	72.17 	 -14.105 	 -40.67 	
76 	 862 	 -1311 	89.075 	 -24.85 	 -31.5 	
139 	 802 	 -1382 	106.96 	 -34.51 	 -15.575 	
137 	 762 	 -1487 	125.545 	 -42.63 	 -0.56 	
130 	 783 	 -1601 	145.25 	 -50.33 	 10.01 	
75 	 735 	 -1674 	162.96 	 -56.98 	 13.44 	
20 	 659 	 -1727 	178.115 	 -63.35 	 9.17 	
-44 	 637 	 -1770 	192.15 	 -68.95 	 0.77 	
-80 	 554 	 -1786 	203.665 	 -74.2 	 -9.905 	
-67 	 490 	 -1781 	212.835 	 -78.085 	 -24.64 	
-36 	 431 	 -1795 	219.625 	 -80.43 	 -40.985 	
-45 	 400 	 -1775 	225.12 	 -80.675 	 -52.01 	
-32 	 365 	 -1701 	228.62 	 -80.5 	 -53.725 	
-52 	 262 	 -1638 	230.79 	 -79.94 	 -48.405 	
-65 	 132 	 -1562 	233.345 	 -79.8 	 -41.44 	
-74 	 -35 	 -1469 	235.41 	 -79.59 	 -37.17 	
-78 	 -137 	 -1431 	238.455 	 -79.66 	 -38.185 	
-76 	 -214 	 -1383 	241.885 	 -79.31 	 -43.75 	
-89 	 -266 	 -1315 	245.455 	 -78.61 	 -51.03 	
-101 	 -309 	 -1254 	248.22 	 -77.7 	 -56.455 	
-148 	 -345 	 -1200 	251.02 	 -76.755 	 -57.33 	
-177 	 -399 	 -1141 	253.295 	 -76.72 	 -53.62 	
-205 	 -463 	 -1078 	255.43 	 -76.895 	 -47.39 	
-241 	 -515 	 -1014 	257.25 	 -77.63 	 -40.775 	
-286 	 -617 	 -966 	258.44 	 -78.505 	 -35.035 	
-354 	 -767 	 -919 	259.385 	 -79.205 	 -33.145 	
-375 	 -936 	 -751 	259.805 	 -79.625 	 -42.21 	
-412 	 -1234 	 -300 	257.215 	 -77 	 -66.43 	
-624 	 -1785 	 404 	248.36 	 -72.415 	 -98.14 	
-658 	 -1362 	 1120 	226.695 	 -67.62 	 -121.765 	
-1145 	 -254 	 1413 	170.1 	 -59.5 	 -97.055 	
-1742 	 876 	 1504 	80.5 	 -56.84 	 6.86 	
-1157 	 258 	 1541 	-42.98 	 -52.955 	 121.94 	
-562 	 107 	 1696 	-184.1 	 -31.43 	 139.23 	
-337 	 529 	 1263 	-344.085 	 4.165 	 92.75 	
-332 	 1254 	 429 	-498.295 	 44.835 	 95.55 	
209 	 1400 	 -505 	-643.615 	 85.26 	 153.23 	
533 	 1347 	 -1568 	-763.245 	 133.56 	 190.645 	
845 	 972 	 -2094 	-836.955 	 175.28 	 181.895 	
451 	 356 	 -1740 	-867.09 	 207.13 	 140.63 	
571 	 29 	 -1201 	-848.225 	 203.245 	 66.115 	
191 	 -188 	 -334 	-785.015 	 180.39 	 -27.055 	
551 	 151 	 -80 	-682.675 	 115.535 	 -135.66 	
40 	 371 	 228 	-556.64 	 54.915 	 -181.755 	
112 	 581 	 239 	-414.715 	 -9.765 	 -132.965 	
346 	 825 	 185 	-272.93 	 -52.955 	 -64.33 	
458 	 920 	 -15 	-148.96 	 -79.94 	 -30.03 	
722 	 1022 	 -325 	-40.565 	 -94.57 	 -13.405 	
809 	 1022 	 -575 	42.49 	 -91.525 	 1.12 	
671 	 758 	 -732 	101.605 	 -76.79 	 26.495 	
575 	 759 	 -887 	142.73 	 -58.24 	 63.525 	
481 	 663 	 -947 	159.25 	 -28.7 	 90.545 	
261 	 1037 	 -1001 	160.44 	 0.98 	 92.96 	
5 	 1146 	 -1037 	142.87 	 29.575 	 86.625 	
-244 	 1279 	 -957 	117.075 	 55.72 	 77.21 	
-399 	 1250 	 -873 	82.635 	 76.23 	 69.825 	
-529 	 1157 	 -843 	48.09 	 91.56 	 70.035 	
-507 	 1017 	 -835 	17.43 	 100.485 	 73.605 	
-455 	 832 	 -846 	-8.4 	 105.455 	 70.91 	
-376 	 715 	 -857 	-27.055 	 106.645 	 60.76 	
-302 	 631 	 -855 	-38.605 	 104.685 	 48.265 	
-240 	 594 	 -856 	-43.645 	 99.4 	 35.875 	
-169 	 610 	 -891 	-42.735 	 91.14 	 26.67 	
-127 	 671 	 -947 	-36.61 	 80.395 	 23.415 	
-87 	 678 	 -1022 	-26.18 	 67.165 	 23.975 	
-31 	 767 	 -1022 	-10.605 	 52.675 	 22.715 	
-47 	 730 	 -1037 	5.005 	 38.045 	 17.92 	
-13 	 748 	 -1148 	27.58 	 21.175 	 9.52 	
-26 	 712 	 -1124 	52.395 	 5.355 	 -3.5 	
3 	 647 	 -1188 	79.975 	 -11.69 	 -22.4 	
-61 	 625 	 -1248 	111.65 	 -27.685 	 -40.53 	
-60 	 684 	 -1325 	146.58 	 -44.59 	 -48.615 	
-29 	 739 	 -1334 	180.425 	 -59.885 	 -43.085 	
-33 	 757 	 -1494 	211.085 	 -73.675 	 -24.255 	
-3 	 802 	 -1632 	239.26 	 -85.995 	 1.47 	
6 	 665 	 -1709 	260.995 	 -95.62 	 19.705 	
92 	 601 	 -1778 	277.13 	 -102.41 	 19.88 	
37 	 551 	 -1788 	287.805 	 -104.37 	 8.995 	
12 	 527 	 -1787 	292.95 	 -104.37 	 -3.15 	
3 	 484 	 -1733 	294.49 	 -102.375 	 -13.86 	
-6 	 350 	 -1659 	292.215 	 -98.98 	 -22.75 	
-38 	 303 	 -1586 	289.345 	 -94.815 	 -27.02 	
-74 	 260 	 -1516 	284.13 	 -90.58 	 -25.025 	
-94 	 192 	 -1492 	277.9 	 -86.45 	 -20.09 	
-54 	 98 	 -1450 	270.865 	 -82.46 	 -17.71 	
-41 	 0 	 -1387 	263.515 	 -77.735 	 -20.09 	
-73 	 -86 	 -1296 	256.48 	 -72.87 	 -24.745 	
-109 	 -172 	 -1182 	249.935 	 -68.285 	 -27.195 	
-137 	 -229 	 -1108 	243.985 	 -64.645 	 -25.515 	
-166 	 -250 	 -1052 	239.05 	 -62.125 	 -21.63 	
-222 	 -302 	 -1000 	234.395 	 -60.27 	 -17.08 	
-296 	 -360 	 -959 	229.95 	 -58.975 	 -11.55 	
-355 	 -325 	 -940 	226.625 	 -59.15 	 -6.44 	
-396 	 -398 	 -935 	222.88 	 -59.815 	 -4.865 	
-445 	 -573 	 -909 	220.255 	 -60.27 	 -9.17 	
-471 	 -770 	 -879 	219.17 	 -61.005 	 -19.425 	
-510 	 -943 	 -857 	219.905 	 -61.18 	 -34.37 	
-564 	 -894 	 -724 	221.9 	 -61.285 	 -51.695 	
-797 	 -1037 	 -380 	220.675 	 -60.41 	 -61.985 	
-1249 	 -1173 	 309 	216.09 	 -61.18 	 -54.495 	
-1712 	 -1215 	 1453 	198.485 	 -64.785 	 -21.315 	
-2208 	 -1159 	 1911 	157.185 	 -70.875 	 30.1 	
-1662 	 42 	 1972 	85.12 	 -72.555 	 48.265 	
-1379 	 41 	 2087 	-20.72 	 -55.86 	 13.125 	
-550 	 640 	 2208 	-148.295 	 -33.39 	 -37.8 	
-40 	 1321 	 1850 	-304.395 	 3.675 	 -37.065 	
661 	 2066 	 888 	-463.89 	 43.89 	 26.145 	
1513 	 2598 	 -315 	-620.41 	 93.87 	 106.54 	
1863 	 2933 	 -1607 	-756.595 	 154.14 	 179.2 	
2051 	 2701 	 -2818 	-851.235 	 212.73 	 250.11 	
1597 	 1501 	 -2931 	-891.73 	 271.285 	 282.695 	
1055 	 -127 	 -1970 	-870.38 	 298.025 	 216.23 	
-141 	 -1089 	 -435 	-793.59 	 284.34 	 61.95 	
-880 	 -1103 	 511 	-680.085 	 206.85 	 -104.09 	
-1022 	 -1224 	 353 	-540.75 	 114.415 	 -201.11 	
-788 	 -139 	 260 	-360.815 	 14.525 	 -202.475 	
-206 	 288 	 -182 	-201.145 	 -62.37 	 -124.18 	
-203 	 657 	 -681 	-56.14 	 -102.2 	 -45.22 	
278 	 1086 	 -1230 	61.145 	 -135.485 	 -20.37 	
395 	 1159 	 -1815 	145.53 	 -135.03 	 -32.55 	
532 	 1214 	 -2265 	203.84 	 -120.925 	 -62.51 	
481 	 1341 	 -2402 	236.775 	 -90.825 	 -82.11 	
312 	 1459 	 -2397 	249.13 	 -52.78 	 -75.32 	
296 	 1370 	 -2368 	245.7 	 -16.31 	 -55.44 	
67 	 1286 	 -2236 	234.15 	 19.95 	 -32.935 	
-64 	 1105 	 -2130 	215.88 	 48.86 	 -1.54 	
-244 	 976 	 -2032 	197.925 	 72.625 	 39.235 	
-287 	 830 	 -1916 	180.635 	 88.48 	 76.405 	
-356 	 656 	 -1827 	164.43 	 100.31 	 96.355 	
-414 	 489 	 -1745 	150.745 	 108.535 	 93.66 	
-441 	 373 	 -1677 	139.86 	 113.19 	 74.06 	
-494 	 291 	 -1611 	131.88 	 115.745 	 49.735 	
-473 	 303 	 -1544 	127.12 	 114.485 	 30.065 	
-447 	 302 	 -1430 	123.97 	 110.81 	 21.595 	
-381 	 339 	 -1348 	123.13 	 104.37 	 29.68 	
-325 	 335 	 -1303 	125.09 	 95.445 	 52.815 	
-269 	 250 	 -1208 	129.465 	 84.42 	 78.19 	
-214 	 98 	 -1113 	134.785 	 72.625 	 92.505 	
-177 	 14 	 -1087 	141.925 	 60.095 	 93.135 	
-150 	 -14 	 -1040 	150.5 	 47.215 	 85.645 	
-131 	 -105 	 -976 	158.165 	 34.44 	 73.675 	
-100 	 -124 	 -937 	165.76 	 22.33 	 57.015 	
-87 	 -91 	 -914 	171.92 	 10.745 	 38.78 	
-102 	 -21 	 -897 	176.225 	 -0.665 	 24.5 	
-120 	 11 	 -869 	178.185 	 -12.005 	 17.92 	
-132 	 54 	 -859 	177.73 	 -23.065 	 20.825 	
-126 	 86 	 -867 	175.28 	 -34.3 	 31.57 	
-71 	 105 	 -899 	171.115 	 -45.57 	 44.03 	
-45 	 24 	 -919 	165.9 	 -55.72 	 51.065 	
-28 	 -113 	 -900 	160.93 	 -64.96 	 48.965 	
-11 	 -203 	 -899 	156.695 	 -72.625 	 38.71 	
-54 	 -273 	 -909 	154.175 	 -79.555 	 23.835 	
-86 	 -330 	 -891 	153.79 	 -86.345 	 7.875 	
-146 	 -412 	 -836 	154.28 	 -92.19 	 -6.3 	
-187 	 -427 	 -808 	156.345 	 -98.21 	 -16.94 	
-208 	 -445 	 -818 	158.865 	 -103.845 	 -22.4 	
-217 	 -478 	 -827 	161.735 	 -109.06 	 -24.01 	
-224 	 -534 	 -804 	164.605 	 -113.82 	 -24.29 	
-233 	 -562 	 -797 	167.195 	 -117.215 	 -25.515 	
-208 	 -564 	 -782 	169.785 	 -119.91 	 -29.4 	
-197 	 -617 	 -755 	171.745 	 -121.45 	 -35.035 	
-217 	 -686 	 -740 	173.845 	 -121.835 	 -40.425 	
-226 	 -714 	 -711 	176.19 	 -121.8 	 -45.15 	
-279 	 -717 	 -659 	178.535 	 -121.065 	 -49 	
-345 	 -726 	 -553 	179.76 	 -120.47 	 -50.085 	
-496 	 -772 	 -348 	179.795 	 -120.33 	 -46.235 	
-775 	 -919 	 2 	177.94 	 -121.485 	 -34.65 	
-1356 	 -1171 	 581 	171.43 	 -123.27 	 -13.265 	
-1702 	 -1556 	 1425 	156.695 	 -129.92 	 6.86 	
-2141 	 -1705 	 2367 	127.05 	 -133.07 	 0 	
-2033 	 -1083 	 3063 	73.71 	 -131.005 	 -55.86 	
-1325 	 -260 	 3159 	-12.075 	 -115.395 	 -147.77 	
-542 	 517 	 2839 	-128.59 	 -95.55 	 -216.195 	
-139 	 1469 	 2252 	-274.75 	 -73.01 	 -179.375 	
93 	 2166 	 1220 	-443.695 	 -42.35 	 -42.175 	
645 	 2558 	 -236 	-621.81 	 -4.2 	 90.58 	
971 	 3162 	 -1814 	-789.915 	 50.435 	 165.865 	
1234 	 3710 	 -3552 	-931.14 	 111.72 	 225.295 	
1188 	 3387 	 -4727 	-1027.57 	 181.23 	 292.88 	
1085 	 1570 	 -4507 	-1061.1 	 246.12 	 305.725 	
480 	 -27 	 -2765 	-1018.08 	 281.61 	 201.95 	
-362 	 -1186 	 -1077 	-930.16 	 264.915 	 15.295 	
-681 	 -1162 	 -500 	-786.765 	 188.23 	 -165.165 	
-531 	 -807 	 -480 	-595.175 	 77.595 	 -215.46 	
-715 	 -151 	 431 	-392.35 	 -7.245 	 -140.07 	
-330 	 -6 	 -239 	-215.81 	 -71.47 	 -49.105 	
52 	 448 	 -406 	-54.005 	 -118.195 	 -22.925 	
272 	 1066 	 -722 	74.97 	 -150.325 	 -38.57 	
750 	 1418 	 -1273 	167.195 	 -165.375 	 -27.895 	
804 	 1509 	 -1596 	217.665 	 -147.35 	 -24.115 	
581 	 1586 	 -1806 	238.35 	 -124.775 	 -13.72 	
350 	 1552 	 -1822 	236.005 	 -92.155 	 -2.205 	
275 	 1530 	 -1774 	218.75 	 -59.36 	 -3.99 	
63 	 1410 	 -1686 	191.59 	 -25.305 	 -19.04 	
-213 	 1387 	 -1500 	160.44 	 5.565 	 -23.975 	
-393 	 1245 	 -1390 	127.505 	 29.4 	 -6.615 	
-556 	 1042 	 -1301 	98.98 	 47.425 	 22.96 	
-614 	 797 	 -1292 	76.02 	 58.695 	 47.25 	
-652 	 657 	 -1263 	59.85 	 67.095 	 54.565 	
-653 	 508 	 -1280 	49.035 	 71.96 	 46.725 	
-621 	 473 	 -1307 	46.445 	 74.025 	 32.2 	
-589 	 398 	 -1277 	48.79 	 74.34 	 18.48 	
-537 	 261 	 -1281 	56.525 	 72.275 	 7.42 	
-497 	 165 	 -1277 	69.895 	 68.705 	 -1.575 	
-457 	 124 	 -1276 	88.025 	 63.21 	 -8.225 	
-425 	 86 	 -1265 	108.43 	 56.7 	 -11.445 	
-360 	 111 	 -1289 	130.095 	 49.35 	 -10.92 	
-288 	 170 	 -1322 	152.53 	 41.79 	 -6.545 	
-234 	 181 	 -1327 	174.16 	 34.23 	 0.525 	
-201 	 152 	 -1311 	193.55 	 26.635 	 8.925 	
-212 	 118 	 -1299 	211.295 	 19.285 	 18.935 	
-196 	 81 	 -1288 	227.325 	 11.025 	 30.31 	
-173 	 21 	 -1281 	240.38 	 2.835 	 41.37 	
-142 	 -31 	 -1274 	250.565 	 -5.32 	 49.98 	
-124 	 -59 	 -1250 	257.425 	 -12.915 	 55.405 	
-120 	 -80 	 -1226 	260.68 	 -19.74 	 59.08 	
-105 	 -105 	 -1226 	260.82 	 -26.075 	 62.44 	
-105 	 -113 	 -1213 	258.58 	 -31.535 	 66.29 	
-115 	 -136 	 -1179 	254.24 	 -36.645 	 70.21 	
-135 	 -181 	 -1116 	248.08 	 -40.845 	 72.135 	
-188 	 -189 	 -1083 	240.905 	 -44.555 	 68.985 	
-209 	 -186 	 -1044 	233.415 	 -48.3 	 59.045 	
-250 	 -272 	 -985 	225.015 	 -50.75 	 44.975 	
-259 	 -322 	 -934 	217.245 	 -52.815 	 30.625 	
-256 	 -364 	 -883 	209.755 	 -54.39 	 17.605 	
-259 	 -399 	 -837 	202.685 	 -55.265 	 5.32 	
-277 	 -459 	 -795 	195.615 	 -55.615 	 -5.495 	
-288 	 -482 	 -761 	189.49 	 -55.825 	 -13.545 	
-300 	 -504 	 -718 	183.33 	 -55.755 	 -16.52 	
-311 	 -524 	 -677 	177.485 	 -55.965 	 -13.475 	
-333 	 -555 	 -636 	171.43 	 -55.965 	 -7.14 	
-324 	 -558 	 -609 	165.375 	 -55.965 	 -2.345 	
-304 	 -578 	 -599 	158.445 	 -55.615 	 -2.03 	
-303 	 -591 	 -590 	151.655 	 -54.565 	 -7.175 	
-329 	 -618 	 -558 	144.445 	 -52.92 	 -14.91 	
-330 	 -644 	 -539 	137.69 	 -51.59 	 -22.54 	
-331 	 -659 	 -508 	131.145 	 -49.735 	 -27.755 	
-319 	 -703 	 -466 	124.985 	 -47.915 	 -28.91 	
-319 	 -693 	 -379 	119.49 	 -46.165 	 -26.18 	
-406 	 -684 	 -207 	113.015 	 -44.1 	 -20.44 	
-619 	 -862 	 20 	104.265 	 -42.49 	 -12.355 	
-806 	 -943 	 501 	94.36 	 -42.35 	 -6.545 	
-1331 	 -1275 	 1389 	77.21 	 -40.6 	 -1.995 	
-1840 	 -1307 	 2553 	49.175 	 -41.23 	 -1.155 	
-1977 	 -796 	 3284 	-6.16 	 -40.005 	 -24.045 	
-1555 	 364 	 3179 	-94.29 	 -31.045 	 -91.7 	
-1027 	 1024 	 2632 	-215.6 	 -16.31 	 -161.105 	
-547 	 2090 	 1710 	-366.52 	 -2.24 	 -136.185 	
-74 	 2628 	 332 	-538.125 	 22.96 	 -11.795 	
506 	 2875 	 -1138 	-705.6 	 58.31 	 91.665 	
1025 	 2952 	 -2593 	-859.635 	 104.44 	 110.18 	
1057 	 2754 	 -3610 	-978.425 	 151.305 	 87.71 	
1117 	 1836 	 -3914 	-1048.15 	 181.195 	 64.715 	
926 	 1040 	 -3219 	-1047.31 	 191.38 	 42.77 	
540 	 107 	 -2032 	-993.615 	 180.04 	 36.19 	
307 	 -850 	 -1155 	-890.19 	 152.145 	 30.52 	
143 	 -1053 	 -828 	-732.9 	 100.38 	 2.1 	
-31 	 -825 	 -265 	-539.63 	 46.97 	 -3.36 	
-39 	 -503 	 2 	-359.31 	 -4.41 	 7.035 	
232 	 -72 	 -285 	-193.165 	 -46.795 	 6.685 	
577 	 810 	 -523 	-44.31 	 -79.17 	 -3.64 	
633 	 1382 	 -924 	66.71 	 -96.355 	 3.745 	
792 	 1785 	 -1314 	143.675 	 -103.32 	 30.975 	
643 	 1681 	 -1590 	181.265 	 -89.95 	 41.23 	
419 	 1704 	 -1688 	198.45 	 -71.75 	 29.995 	
153 	 1577 	 -1635 	197.365 	 -48.685 	 14.665 	
21 	 1632 	 -1491 	186.725 	 -24.885 	 5.74 	
-105 	 1549 	 -1403 	166.88 	 -1.785 	 8.61 	
-228 	 1442 	 -1371 	145.705 	 18.165 	 24.745 	
-212 	 1267 	 -1315 	125.37 	 33.39 	 45.99 	
-185 	 1080 	 -1260 	107.24 	 46.48 	 62.475 	
-212 	 889 	 -1236 	92.925 	 57.085 	 70.945 	
-220 	 805 	 -1229 	83.055 	 64.225 	 71.785 	
-231 	 730 	 -1271 	77.49 	 68.285 	 67.06 	
-192 	 759 	 -1293 	75.985 	 69.825 	 57.505 	
-151 	 707 	 -1339 	76.79 	 68.95 	 43.715 	
-154 	 710 	 -1337 	81.375 	 66.185 	 28.595 	
-161 	 665 	 -1305 	87.745 	 61.11 	 19.355 	
-162 	 575 	 -1289 	96.985 	 54.005 	 21.14 	
-183 	 424 	 -1281 	108.36 	 44.905 	 32.97 	
-160 	 331 	 -1276 	122.36 	 34.58 	 46.725 	
-145 	 223 	 -1290 	136.605 	 23.835 	 54.53 	
-135 	 185 	 -1308 	151.445 	 12.95 	 53.725 	
-144 	 111 	 -1294 	164.85 	 2.73 	 44.275 	
-147 	 21 	 -1283 	177.31 	 -7.035 	 26.775 	
-152 	 -6 	 -1273 	188.65 	 -15.96 	 5.635 	
-185 	 -40 	 -1263 	199.36 	 -24.43 	 -11.795 	
-209 	 -62 	 -1233 	208.425 	 -32.655 	 -20.475 	
-216 	 -63 	 -1220 	216.09 	 -40.67 	 -20.09 	
-216 	 -68 	 -1224 	221.83 	 -48.65 	 -13.23 	
-212 	 -83 	 -1221 	225.645 	 -56.175 	 -3.395 	
-196 	 -97 	 -1227 	227.465 	 -63.035 	 5.145 	
-194 	 -126 	 -1230 	227.92 	 -69.265 	 9.415 	
-187 	 -179 	 -1189 	227.535 	 -74.48 	 8.085 	
-183 	 -261 	 -1142 	225.995 	 -78.505 	 0.385 	
-175 	 -293 	 -1139 	224.805 	 -81.585 	 -14.175 	
-173 	 -333 	 -1088 	223.79 	 -83.3 	 -32.935 	
-163 	 -383 	 -1043 	222.845 	 -84.035 	 -51.38 	
-138 	 -402 	 -1022 	222.285 	 -83.58 	 -65.17 	
-129 	 -388 	 -1009 	221.725 	 -82.18 	 -71.89 	
-116 	 -384 	 -972 	221.165 	 -80.605 	 -71.54 	
-126 	 -444 	 -921 	220.255 	 -78.82 	 -65.415 	
-117 	 -494 	 -884 	219.38 	 -77.28 	 -55.545 	
-138 	 -528 	 -827 	218.75 	 -75.67 	 -44.52 	
-140 	 -571 	 -790 	217.63 	 -74.48 	 -35.14 	
-121 	 -577 	 -773 	216.195 	 -73.255 	 -29.68 	
-107 	 -598 	 -767 	213.605 	 -71.12 	 -28.175 	
-81 	 -578 	 -773 	210.49 	 -68.53 	 -29.19 	
-15 	 -535 	 -772 	206.045 	 -65.205 	 -31.22 	
1 	 -521 	 -752 	199.885 	 -60.095 	 -31.99 	
17 	 -503 	 -721 	192.745 	 -55.055 	 -28.91 	
7 	 -467 	 -667 	184.835 	 -49.77 	 -20.755 	
11 	 -388 	 -599 	175.56 	 -44.905 	 -7.665 	
-54 	 -442 	 -516 	163.17 	 -40.11 	 11.27 	
-112 	 -505 	 -429 	150.08 	 -36.68 	 32.97 	
-212 	 -405 	 -272 	134.61 	 -33.145 	 49.525 	
-380 	 -512 	 39 	112.91 	 -29.365 	 56.805 	
-631 	 -547 	 451 	86.975 	 -26.425 	 56.105 	
-917 	 -931 	 978 	52.64 	 -23.31 	 57.645 	
-1441 	 -920 	 1582 	9.94 	 -20.79 	 67.305 	
-1764 	 -1010 	 1991 	-50.54 	 -19.915 	 69.72 	
-1820 	 -477 	 2311 	-123.62 	 -14.35 	 45.395 	
-1433 	 -405 	 2251 	-222.355 	 -5.005 	 10.22 	
-950 	 232 	 1791 	-331.065 	 11.515 	 -8.925 	
-497 	 626 	 1302 	-451.64 	 34.125 	 9.03 	
-102 	 875 	 639 	-574.77 	 66.045 	 58.1 	
339 	 1184 	 -338 	-689.325 	 103.775 	 101.43 	
766 	 1625 	 -1454 	-782.74 	 145.74 	 112.945 	
1263 	 2100 	 -2439 	-849.52 	 182.49 	 104.825 	
1304 	 2060 	 -2801 	-883.085 	 211.89 	 102.445 	
1007 	 1596 	 -2458 	-879.095 	 227.465 	 102.025 	
713 	 899 	 -1755 	-830.83 	 222.985 	 85.12 	
128 	 10 	 -1112 	-746.865 	 195.3 	 45.99 	
-2 	 59 	 -730 	-613.83 	 132.37 	 -1.365 	
-550 	 -281 	 -125 	-474.32 	 71.505 	 -12.565 	
-601 	 -213 	 -96 	-323.225 	 2.87 	 -16.415 	
-282 	 27 	 -192 	-185.29 	 -58.625 	 -46.095 	
