STEVAL-MKI197V1 (LSM6DSOX)

A_X [mg] 	 A_Y [mg] 	 A_Z [mg] 	G_X [dps] 	 G_Y [dps] 	 G_Z [dps] 	
-1000 	 48 	 -225 	 19.425 	 -13.58 	 1.995 	
-999 	 51 	 -238 	 19.95 	 -13.3 	 -1.575 	
-1004 	 17 	 -251 	 20.755 	 -13.37 	 -6.02 	
-984 	 35 	 -264 	 22.715 	 -13.86 	 -11.305 	
-964 	 78 	 -282 	 24.115 	 -13.86 	 -16.73 	
-989 	 94 	 -286 	 24.745 	 -13.44 	 -22.12 	
-1004 	 79 	 -292 	 25.27 	 -13.23 	 -26.915 	
-1016 	 102 	 -292 	 26.39 	 -13.475 	 -31.465 	
-1012 	 144 	 -312 	 27.125 	 -13.685 	 -34.965 	
-1016 	 145 	 -325 	 27.02 	 -13.51 	 -37.205 	
-1035 	 128 	 -305 	 27.265 	 -13.65 	 -38.92 	
-1034 	 164 	 -296 	 28.595 	 -14.175 	 -40.355 	
-1039 	 220 	 -310 	 29.26 	 -14.14 	 -41.685 	
-1067 	 190 	 -309 	 28.875 	 -13.72 	 -42.945 	
-1088 	 109 	 -299 	 29.155 	 -13.86 	 -44.625 	
-1076 	 78 	 -286 	 30.38 	 -14.385 	 -47.145 	
-1053 	 74 	 -272 	 31.465 	 -14.42 	 -50.365 	
-1053 	 39 	 -254 	 32.27 	 -13.79 	 -54.215 	
-1048 	 0 	 -232 	 33.635 	 -13.44 	 -59.08 	
-1022 	 -43 	 -217 	 35.63 	 -13.16 	 -64.295 	
-1006 	 -135 	 -170 	 37.87 	 -11.935 	 -69.09 	
-986 	 -341 	 -61 	 40.565 	 -10.15 	 -72.24 	
-967 	 -626 	 107 	 44.52 	 -8.05 	 -72.695 	
-866 	 -1018 	 309 	 49.665 	 -5.495 	 -69.615 	
-709 	 -1476 	 559 	 56.63 	 -1.365 	 -62.825 	
-629 	 -1946 	 891 	 64.82 	 4.935 	 -53.48 	
-502 	 -2444 	 1234 	 73.57 	 11.55 	 -42.945 	
-329 	 -2817 	 1650 	 82.215 	 18.62 	 -34.125 	
-203 	 -3008 	 1986 	 87.465 	 26.39 	 -28.945 	
-19 	 -2827 	 2159 	 87.36 	 34.965 	 -30.03 	
224 	 -2476 	 2172 	 82.005 	 44.1 	 -40.32 	
498 	 -1895 	 2053 	 72.835 	 52.745 	 -60.06 	
699 	 -1085 	 1840 	 54.81 	 61.075 	 -86.205 	
580 	 -438 	 1645 	 22.05 	 71.855 	 -107.275 	
-12 	 -179 	 1648 	 -20.37 	 83.125 	 -112.07 	
-704 	 412 	 1667 	 -65.31 	 84.595 	 -97.3 	
-1149 	 1255 	 1470 	 -118.09 	 73.08 	 -56.98 	
-1353 	 1625 	 1208 	 -180.775 	 56.0 	 7.595 	
-1372 	 1975 	 711 	 -245.245 	 40.565 	 86.03 	
-1682 	 2579 	 212 	 -311.36 	 29.12 	 166.705 	
-2080 	 2944 	 -276 	 -382.165 	 15.82 	 240.975 	
-2261 	 2964 	 -770 	 -451.115 	 0.875 	 297.78 	
-2377 	 3078 	 -1247 	 -512.085 	 -10.08 	 329.28 	
-2384 	 3199 	 -1666 	 -569.24 	 -16.45 	 333.48 	
-2182 	 3009 	 -2033 	 -623.525 	 -20.055 	 312.865 	
-1993 	 2625 	 -2321 	 -667.45 	 -20.615 	 273.84 	
-1908 	 2238 	 -2429 	 -695.52 	 -20.055 	 224.315 	
-1857 	 1732 	 -2396 	 -708.82 	 -21.315 	 172.2 	
-1863 	 940 	 -2185 	 -706.335 	 -24.675 	 125.23 	
-1784 	 175 	 -1916 	 -684.74 	 -30.415 	 85.015 	
-1840 	 -302 	 -1528 	 -645.82 	 -35.595 	 52.605 	
-1796 	 -782 	 -1085 	 -594.195 	 -41.37 	 32.06 	
-1642 	 -1000 	 -751 	 -529.935 	 -46.655 	 14.63 	
-1401 	 -1305 	 9 	 -456.89 	 -45.045 	 -3.185 	
-1409 	 -1423 	 959 	 -376.95 	 -48.265 	 -32.655 	
-867 	 -1477 	 985 	 -287.56 	 -60.935 	 -67.34 	
-448 	 -937 	 325 	 -196.665 	 -61.005 	 -105.63 	
-676 	 -768 	 3 	 -112.875 	 -43.96 	 -121.345 	
-1107 	 -477 	 152 	 -29.82 	 -32.06 	 -125.37 	
-902 	 -63 	 14 	 50.4 	 -33.075 	 -118.65 	
-449 	 506 	 -412 	 119.945 	 -29.505 	 -109.27 	
-388 	 757 	 -624 	 174.615 	 -12.81 	 -96.95 	
-676 	 848 	 -668 	 219.485 	 5.845 	 -87.78 	
-753 	 1057 	 -873 	 257.53 	 15.435 	 -83.79 	
-529 	 1415 	 -1115 	 285.425 	 21.84 	 -85.855 	
-338 	 1597 	 -1258 	 300.195 	 33.635 	 -90.055 	
-382 	 1582 	 -1259 	 307.335 	 49.035 	 -92.645 	
-512 	 1564 	 -1223 	 309.89 	 61.67 	 -93.205 	
-553 	 1590 	 -1125 	 307.545 	 70.28 	 -88.97 	
-530 	 1511 	 -1100 	 299.005 	 77.175 	 -78.19 	
-597 	 1338 	 -1020 	 287.07 	 84.42 	 -61.565 	
-661 	 1096 	 -928 	 274.575 	 89.425 	 -40.39 	
-704 	 980 	 -802 	 263.2 	 91.875 	 -19.075 	
-724 	 865 	 -659 	 250.985 	 92.995 	 2.45 	
-765 	 688 	 -521 	 238.07 	 93.135 	 22.085 	
-830 	 506 	 -394 	 226.275 	 91.875 	 39.55 	
-910 	 412 	 -279 	 216.09 	 89.215 	 54.845 	
-986 	 318 	 -182 	 205.625 	 85.645 	 68.845 	
-1087 	 169 	 -110 	 195.3 	 81.235 	 80.675 	
-1156 	 22 	 -58 	 186.55 	 75.845 	 89.39 	
-1198 	 -26 	 -28 	 179.375 	 69.72 	 93.205 	
-1202 	 -25 	 -25 	 172.515 	 63.525 	 92.05 	
-1219 	 -26 	 -27 	 165.27 	 57.68 	 85.855 	
-1239 	 -40 	 -19 	 157.92 	 51.87 	 75.32 	
-1237 	 -49 	 -15 	 150.395 	 45.99 	 61.635 	
-1234 	 -57 	 -26 	 142.975 	 40.6 	 46.095 	
-1233 	 -60 	 -32 	 135.87 	 35.42 	 30.205 	
-1231 	 -42 	 -32 	 129.08 	 30.205 	 14.56 	
-1217 	 -20 	 -38 	 122.36 	 25.025 	 0.42 	
-1221 	 5 	 -40 	 116.13 	 20.16 	 -11.76 	
-1224 	 2 	 -42 	 109.935 	 15.575 	 -21.385 	
-1232 	 -11 	 -34 	 104.335 	 10.815 	 -28.595 	
-1227 	 -42 	 -25 	 99.365 	 5.95 	 -33.355 	
-1218 	 -64 	 -5 	 95.41 	 0.98 	 -36.19 	
-1208 	 -96 	 15 	 92.155 	 -4.025 	 -37.59 	
-1183 	 -145 	 28 	 89.425 	 -8.82 	 -37.555 	
-1167 	 -183 	 40 	 87.36 	 -13.335 	 -36.75 	
-1174 	 -218 	 52 	 86.135 	 -17.85 	 -35.105 	
-1193 	 -235 	 60 	 85.61 	 -22.54 	 -33.145 	
-1234 	 -266 	 95 	 85.225 	 -26.95 	 -31.045 	
-1254 	 -311 	 136 	 84.805 	 -31.395 	 -29.4 	
-1252 	 -373 	 153 	 84.84 	 -35.875 	 -28.875 	
-1237 	 -392 	 143 	 85.785 	 -40.32 	 -30.065 	
-1197 	 -361 	 122 	 87.045 	 -44.59 	 -33.6 	
-1140 	 -335 	 107 	 87.64 	 -48.195 	 -39.235 	
-1089 	 -342 	 97 	 87.99 	 -50.995 	 -46.935 	
-1047 	 -358 	 91 	 88.515 	 -53.41 	 -56.035 	
-1008 	 -360 	 82 	 89.005 	 -55.405 	 -65.87 	
-974 	 -362 	 75 	 89.6 	 -57.12 	 -75.705 	
-959 	 -365 	 70 	 89.985 	 -58.31 	 -84.77 	
-950 	 -358 	 64 	 90.685 	 -59.395 	 -92.68 	
-932 	 -337 	 57 	 91.385 	 -60.515 	 -99.015 	
-907 	 -315 	 50 	 91.875 	 -61.32 	 -103.67 	
-888 	 -294 	 42 	 92.295 	 -62.02 	 -106.435 	
-889 	 -269 	 40 	 92.785 	 -62.615 	 -107.345 	
-884 	 -245 	 37 	 93.205 	 -63.315 	 -106.365 	
-877 	 -226 	 33 	 93.45 	 -63.98 	 -103.74 	
-891 	 -212 	 31 	 93.765 	 -64.715 	 -99.47 	
-906 	 -208 	 31 	 94.08 	 -65.415 	 -94.15 	
-918 	 -212 	 36 	 94.64 	 -66.36 	 -87.85 	
-935 	 -223 	 40 	 95.06 	 -67.375 	 -80.955 	
-945 	 -249 	 43 	 95.585 	 -68.425 	 -73.745 	
-953 	 -289 	 54 	 96.46 	 -69.65 	 -66.64 	
-943 	 -341 	 71 	 97.685 	 -71.015 	 -59.92 	
-928 	 -398 	 87 	 98.98 	 -72.135 	 -53.865 	
-917 	 -463 	 108 	 100.73 	 -73.01 	 -48.58 	
-914 	 -515 	 132 	 102.725 	 -73.675 	 -44.24 	
-892 	 -578 	 159 	 105.245 	 -74.55 	 -40.495 	
-889 	 -653 	 200 	 108.01 	 -75.145 	 -37.45 	
-927 	 -780 	 284 	 110.705 	 -74.97 	 -34.405 	
-990 	 -926 	 398 	 113.4 	 -74.83 	 -32.095 	
-1012 	 -1072 	 471 	 116.445 	 -75.46 	 -30.975 	
-965 	 -1158 	 499 	 120.54 	 -75.915 	 -31.64 	
-890 	 -1168 	 539 	 124.845 	 -75.215 	 -34.405 	
-829 	 -1219 	 623 	 127.47 	 -73.01 	 -38.325 	
-786 	 -1318 	 752 	 128.94 	 -70.245 	 -43.715 	
-741 	 -1444 	 859 	 130.095 	 -67.025 	 -50.75 	
-634 	 -1473 	 951 	 129.885 	 -63.42 	 -58.8 	
-458 	 -1411 	 1056 	 127.855 	 -58.03 	 -69.09 	
-302 	 -1295 	 1179 	 123.025 	 -51.065 	 -80.605 	
-117 	 -1053 	 1284 	 113.4 	 -43.715 	 -92.82 	
218 	 -679 	 1282 	 98.105 	 -36.155 	 -104.44 	
307 	 -320 	 1214 	 76.055 	 -26.495 	 -112.63 	
183 	 31 	 1223 	 47.95 	 -17.15 	 -113.645 	
128 	 435 	 1215 	 13.405 	 -10.71 	 -104.51 	
-68 	 1000 	 1124 	 -27.58 	 -5.495 	 -85.12 	
-416 	 1408 	 932 	 -75.88 	 -3.395 	 -47.425 	
-680 	 1711 	 703 	 -127.26 	 -6.16 	 5.67 	
-864 	 2200 	 396 	 -180.95 	 -10.745 	 72.765 	
-1096 	 2485 	 108 	 -240.765 	 -13.685 	 153.58 	
-1263 	 2358 	 -197 	 -303.135 	 -16.1 	 241.885 	
-1373 	 2185 	 -501 	 -362.075 	 -16.905 	 325.92 	
-1490 	 2160 	 -812 	 -417.375 	 -14.14 	 397.11 	
-1617 	 2029 	 -1138 	 -470.89 	 -6.685 	 448.245 	
-1693 	 1636 	 -1405 	 -519.785 	 5.775 	 475.265 	
-1758 	 1328 	 -1580 	 -560.525 	 21.56 	 475.895 	
-1757 	 1164 	 -1660 	 -593.25 	 38.255 	 453.11 	
-1722 	 1042 	 -1746 	 -620.06 	 54.705 	 410.9 	
-1724 	 743 	 -1815 	 -638.75 	 70.945 	 355.565 	
-1727 	 310 	 -1842 	 -646.59 	 85.33 	 290.815 	
-1731 	 -116 	 -1641 	 -642.285 	 96.145 	 220.045 	
-1606 	 -583 	 -1450 	 -628.145 	 100.24 	 147.245 	
-1554 	 -1012 	 -1226 	 -603.47 	 100.975 	 77.56 	
-1559 	 -1270 	 -970 	 -567.105 	 98.14 	 16.24 	
-1647 	 -1330 	 -667 	 -521.045 	 93.345 	 -30.275 	
-1702 	 -1400 	 -367 	 -470.82 	 86.03 	 -59.465 	
-1725 	 -1455 	 -39 	 -414.855 	 77.7 	 -72.31 	
-1654 	 -1473 	 122 	 -352.345 	 68.985 	 -73.535 	
-1475 	 -1437 	 191 	 -284.2 	 61.355 	 -68.845 	
-1281 	 -1341 	 221 	 -212.94 	 56.175 	 -63.07 	
-1123 	 -1151 	 202 	 -141.4 	 53.69 	 -59.43 	
-1008 	 -897 	 184 	 -73.78 	 53.2 	 -59.99 	
-958 	 -652 	 60 	 -11.83 	 53.83 	 -62.93 	
-892 	 -488 	 -125 	 44.73 	 55.265 	 -68.25 	
-844 	 -192 	 -276 	 97.055 	 58.065 	 -75.635 	
-782 	 74 	 -404 	 142.835 	 61.39 	 -81.865 	
-773 	 353 	 -544 	 180.32 	 65.31 	 -88.445 	
-742 	 494 	 -647 	 209.72 	 69.685 	 -92.75 	
-740 	 562 	 -691 	 232.96 	 74.935 	 -95.795 	
-735 	 628 	 -741 	 251.44 	 79.59 	 -96.775 	
-710 	 700 	 -807 	 264.355 	 83.265 	 -96.46 	
-671 	 737 	 -866 	 271.74 	 86.485 	 -94.85 	
-644 	 696 	 -890 	 275.45 	 89.775 	 -91.875 	
-649 	 659 	 -867 	 277.48 	 92.89 	 -87.99 	
-675 	 663 	 -816 	 277.62 	 95.095 	 -82.915 	
-705 	 641 	 -729 	 275.275 	 96.145 	 -76.23 	
-740 	 558 	 -640 	 271.285 	 96.32 	 -67.725 	
-786 	 469 	 -573 	 267.155 	 95.655 	 -57.54 	
-855 	 412 	 -525 	 263.27 	 94.185 	 -45.745 	
-911 	 364 	 -477 	 259.175 	 91.665 	 -32.165 	
-951 	 312 	 -436 	 255.01 	 88.235 	 -17.465 	
-979 	 266 	 -396 	 251.125 	 83.965 	 -2.415 	
-1004 	 217 	 -360 	 247.345 	 79.1 	 12.53 	
-1031 	 179 	 -332 	 243.46 	 73.71 	 26.635 	
-1057 	 132 	 -318 	 239.855 	 68.005 	 39.55 	
-1088 	 119 	 -314 	 236.635 	 62.09 	 50.715 	
-1136 	 112 	 -307 	 233.135 	 55.93 	 60.06 	
-1200 	 14 	 -281 	 228.55 	 49.42 	 67.41 	
-1234 	 -120 	 -255 	 223.755 	 42.525 	 71.995 	
-1218 	 -206 	 -270 	 220.325 	 35.49 	 72.905 	
-1169 	 -150 	 -309 	 217.84 	 28.805 	 69.615 	
-1103 	 -54 	 -327 	 213.955 	 23.065 	 62.615 	
-1056 	 6 	 -322 	 208.145 	 18.095 	 51.94 	
-1012 	 1 	 -324 	 201.845 	 13.58 	 38.92 	
-997 	 20 	 -332 	 195.685 	 9.695 	 24.22 	
-1006 	 62 	 -330 	 189.525 	 6.475 	 9.555 	
-1044 	 63 	 -305 	 182.35 	 3.395 	 -3.64 	
-1076 	 -4 	 -271 	 174.755 	 0.07 	 -14.49 	
-1088 	 -60 	 -255 	 168.07 	 -3.22 	 -23.135 	
-1099 	 -47 	 -246 	 162.19 	 -6.405 	 -29.4 	
-1115 	 -18 	 -237 	 155.68 	 -9.59 	 -33.74 	
-1133 	 14 	 -235 	 148.785 	 -12.95 	 -36.715 	
-1148 	 10 	 -217 	 141.68 	 -15.995 	 -38.675 	
-1171 	 0 	 -185 	 134.155 	 -18.97 	 -40.53 	
-1172 	 -21 	 -165 	 126.665 	 -22.26 	 -42.28 	
-1164 	 -17 	 -152 	 119.805 	 -25.725 	 -44.625 	
-1137 	 31 	 -163 	 113.225 	 -28.84 	 -47.53 	
-1119 	 82 	 -164 	 105.91 	 -31.395 	 -51.1 	
-1104 	 80 	 -151 	 97.79 	 -33.67 	 -55.16 	
-1076 	 54 	 -135 	 90.125 	 -36.155 	 -59.395 	
-1051 	 45 	 -118 	 83.195 	 -38.36 	 -63.385 	
-1044 	 40 	 -103 	 76.37 	 -40.005 	 -66.29 	
-1038 	 13 	 -81 	 69.51 	 -41.93 	 -68.11 	
-1032 	 -16 	 -63 	 63.105 	 -43.925 	 -68.705 	
-1014 	 -28 	 -53 	 57.575 	 -45.955 	 -68.285 	
-1016 	 -29 	 -44 	 52.36 	 -47.635 	 -66.92 	
-1016 	 -34 	 -33 	 47.285 	 -49.35 	 -64.645 	
-1020 	 -47 	 -24 	 42.525 	 -51.275 	 -61.775 	
-1022 	 -60 	 -10 	 38.465 	 -53.095 	 -58.345 	
-1038 	 -73 	 5 	 34.79 	 -54.705 	 -54.46 	
-1037 	 -100 	 21 	 31.43 	 -56.56 	 -50.225 	
-1036 	 -156 	 66 	 28.63 	 -58.17 	 -45.71 	
-1037 	 -234 	 133 	 26.635 	 -59.57 	 -41.055 	
-1053 	 -343 	 225 	 25.13 	 -60.655 	 -35.98 	
-1086 	 -519 	 358 	 24.29 	 -61.425 	 -30.275 	
-1096 	 -812 	 561 	 23.94 	 -61.46 	 -23.59 	
-1057 	 -1191 	 833 	 25.27 	 -61.005 	 -16.135 	
-975 	 -1639 	 1126 	 27.58 	 -59.71 	 -8.61 	
-818 	 -2108 	 1418 	 30.485 	 -57.33 	 -2.52 	
-627 	 -2374 	 1780 	 34.335 	 -53.13 	 -0.63 	
-349 	 -2564 	 2280 	 36.715 	 -47.215 	 -4.13 	
106 	 -2542 	 2721 	 34.405 	 -39.725 	 -16.52 	
599 	 -2358 	 2818 	 24.99 	 -30.73 	 -39.655 	
1088 	 -1896 	 2736 	 9.835 	 -20.72 	 -74.55 	
1496 	 -1066 	 2488 	 -14.49 	 -8.54 	 -116.34 	
1195 	 -493 	 2313 	 -52.535 	 8.575 	 -150.99 	
266 	 153 	 2345 	 -96.67 	 22.54 	 -168.805 	
-629 	 1366 	 2090 	 -148.015 	 23.8 	 -162.4 	
-1252 	 2345 	 1528 	 -214.06 	 15.085 	 -119.665 	
-1603 	 2936 	 839 	 -287.945 	 1.785 	 -43.12 	
-1914 	 3505 	 175 	 -361.515 	 -12.075 	 56.77 	
-2187 	 4002 	 -499 	 -434.805 	 -25.69 	 169.925 	
-2302 	 4249 	 -1318 	 -509.74 	 -35.21 	 281.19 	
-2325 	 3962 	 -2023 	 -583.31 	 -35.56 	 378.455 	
-2510 	 3744 	 -2581 	 -648.41 	 -28.56 	 449.05 	
-2674 	 3519 	 -3061 	 -704.41 	 -18.83 	 490.0 	
-2479 	 2977 	 -3377 	 -747.18 	 -4.34 	 502.285 	
-2007 	 2319 	 -3493 	 -771.33 	 18.2 	 485.52 	
-1640 	 1714 	 -3544 	 -778.365 	 44.31 	 443.765 	
-1416 	 414 	 -3283 	 -774.34 	 66.15 	 378.945 	
-1227 	 -1029 	 -2948 	 -747.11 	 81.62 	 302.575 	
-1345 	 -1690 	 -2411 	 -691.74 	 93.555 	 218.155 	
-1404 	 -1990 	 -1582 	 -622.265 	 100.73 	 140.21 	
-1553 	 -2292 	 -667 	 -545.93 	 100.765 	 74.725 	
-1608 	 -2243 	 -51 	 -461.79 	 90.44 	 17.36 	
-1321 	 -2251 	 -12 	 -374.57 	 74.935 	 -30.87 	
-1168 	 -2118 	 190 	 -279.965 	 64.785 	 -72.345 	
-1088 	 -1926 	 329 	 -178.92 	 56.385 	 -98.525 	
-1151 	 -1298 	 127 	 -78.295 	 47.915 	 -112.49 	
-1059 	 -807 	 -136 	 10.115 	 40.11 	 -108.85 	
-929 	 -451 	 -220 	 87.885 	 34.79 	 -96.915 	
-843 	 -282 	 -419 	 157.92 	 31.045 	 -82.145 	
-808 	 12 	 -697 	 220.08 	 27.615 	 -74.935 	
-813 	 289 	 -901 	 269.15 	 25.095 	 -74.445 	
-806 	 299 	 -1038 	 305.76 	 23.45 	 -78.995 	
-792 	 294 	 -1235 	 336.28 	 22.225 	 -89.39 	
-726 	 502 	 -1426 	 360.885 	 21.56 	 -103.32 	
-675 	 730 	 -1462 	 374.955 	 22.645 	 -115.43 	
-737 	 786 	 -1355 	 379.75 	 24.675 	 -122.01 	
-862 	 746 	 -1254 	 380.03 	 25.76 	 -122.115 	
-977 	 687 	 -1166 	 377.51 	 24.99 	 -116.41 	
-1052 	 616 	 -1068 	 371.735 	 22.925 	 -105.875 	
-1115 	 482 	 -924 	 363.685 	 20.055 	 -92.085 	
-1132 	 343 	 -787 	 354.83 	 16.275 	 -78.365 	
-1120 	 267 	 -673 	 345.905 	 11.76 	 -65.695 	
-1097 	 240 	 -557 	 336.175 	 7.105 	 -54.635 	
-1074 	 233 	 -449 	 325.5 	 2.205 	 -45.255 	
-1068 	 215 	 -360 	 314.335 	 -2.485 	 -36.89 	
-1080 	 145 	 -296 	 302.715 	 -7.035 	 -28.595 	
-1103 	 83 	 -235 	 291.62 	 -11.725 	 -20.3 	
-1105 	 46 	 -191 	 280.875 	 -16.555 	 -12.215 	
-1099 	 33 	 -162 	 270.725 	 -21.21 	 -4.97 	
-1095 	 0 	 -136 	 260.505 	 -25.41 	 0.805 	
-1074 	 -39 	 -124 	 250.215 	 -29.54 	 4.095 	
-1024 	 -99 	 -124 	 240.275 	 -33.6 	 4.97 	
-983 	 -132 	 -114 	 231.0 	 -36.715 	 2.625 	
-947 	 -163 	 -125 	 222.005 	 -39.27 	 -2.1 	
-944 	 -171 	 -122 	 213.36 	 -41.195 	 -9.59 	
-914 	 -186 	 -129 	 204.75 	 -42.805 	 -18.41 	
-916 	 -183 	 -128 	 196.315 	 -44.275 	 -28.7 	
-899 	 -176 	 -127 	 188.23 	 -45.325 	 -39.9 	
-915 	 -172 	 -122 	 180.075 	 -45.535 	 -51.415 	
-935 	 -167 	 -113 	 172.13 	 -46.235 	 -63.07 	
-937 	 -154 	 -114 	 164.5 	 -47.075 	 -74.27 	
-940 	 -112 	 -120 	 157.01 	 -47.635 	 -84.63 	
-955 	 -83 	 -128 	 149.1 	 -47.845 	 -93.415 	
-983 	 -36 	 -130 	 141.435 	 -47.985 	 -101.115 	
-987 	 -3 	 -121 	 133.84 	 -48.475 	 -106.96 	
-989 	 21 	 -108 	 126.315 	 -49.385 	 -111.02 	
-980 	 43 	 -107 	 118.86 	 -50.26 	 -113.085 	
-987 	 58 	 -101 	 111.475 	 -50.715 	 -113.155 	
-1008 	 57 	 -93 	 104.23 	 -51.555 	 -111.37 	
-1010 	 53 	 -85 	 97.195 	 -52.92 	 -108.045 	
-999 	 43 	 -76 	 90.65 	 -54.11 	 -103.495 	
-1012 	 34 	 -54 	 84.315 	 -54.985 	 -97.86 	
-1026 	 19 	 -20 	 78.19 	 -56.28 	 -91.35 	
-1018 	 -7 	 7 	 72.31 	 -57.995 	 -84.245 	
-999 	 -38 	 29 	 66.92 	 -59.605 	 -76.58 	
-996 	 -64 	 53 	 62.02 	 -61.04 	 -68.285 	
-999 	 -86 	 79 	 57.295 	 -62.475 	 -59.745 	
-995 	 -124 	 102 	 52.85 	 -64.155 	 -51.135 	
-982 	 -173 	 124 	 48.79 	 -65.66 	 -42.84 	
-977 	 -212 	 153 	 45.36 	 -66.885 	 -35.0 	
-961 	 -238 	 178 	 42.21 	 -68.285 	 -27.965 	
-929 	 -272 	 196 	 39.2 	 -69.58 	 -21.77 	
-903 	 -311 	 226 	 36.54 	 -70.35 	 -16.73 	
-908 	 -367 	 284 	 34.195 	 -70.42 	 -12.565 	
-914 	 -464 	 385 	 31.85 	 -70.35 	 -8.96 	
-895 	 -596 	 507 	 29.715 	 -70.35 	 -5.81 	
-872 	 -767 	 640 	 28.0 	 -69.72 	 -2.73 	
-833 	 -942 	 777 	 26.81 	 -68.39 	 -0.28 	
-753 	 -1101 	 929 	 25.865 	 -66.22 	 1.155 	
-638 	 -1256 	 1108 	 23.555 	 -63.0 	 0.875 	
-379 	 -1415 	 1335 	 19.39 	 -58.695 	 -1.925 	
-128 	 -1420 	 1630 	 14.42 	 -51.31 	 -9.24 	
205 	 -1263 	 1826 	 7.14 	 -43.155 	 -19.32 	
457 	 -1128 	 1986 	 -5.985 	 -34.405 	 -31.85 	
898 	 -1008 	 2154 	 -25.34 	 -25.06 	 -44.765 	
1213 	 -893 	 2346 	 -51.695 	 -11.41 	 -54.74 	
1279 	 -631 	 2512 	 -83.545 	 2.625 	 -55.475 	
1046 	 -258 	 2452 	 -120.715 	 11.865 	 -41.86 	
678 	 417 	 2358 	 -162.855 	 18.41 	 -8.47 	
172 	 1173 	 2137 	 -213.605 	 24.01 	 48.16 	
-422 	 1530 	 1766 	 -272.615 	 25.69 	 127.82 	
-753 	 1787 	 1361 	 -332.36 	 23.135 	 219.66 	
-936 	 2083 	 743 	 -394.73 	 22.225 	 311.605 	
-1194 	 2055 	 160 	 -460.635 	 26.67 	 392.84 	
-1314 	 1967 	 -422 	 -523.81 	 34.02 	 451.955 	
-1501 	 2148 	 -1043 	 -582.365 	 45.815 	 484.925 	
-1870 	 2357 	 -1597 	 -637.875 	 61.005 	 497.28 	
-2203 	 2424 	 -2100 	 -687.68 	 76.055 	 494.06 	
-2423 	 2510 	 -2488 	 -729.05 	 92.19 	 479.01 	
-2699 	 2609 	 -2697 	 -763.35 	 107.835 	 454.58 	
-2812 	 2406 	 -2808 	 -789.25 	 117.845 	 421.96 	
-2440 	 1796 	 -2955 	 -801.395 	 123.27 	 379.365 	
-2177 	 1060 	 -2954 	 -797.37 	 132.685 	 328.335 	
-2287 	 23 	 -2672 	 -778.435 	 139.86 	 269.29 	
-2287 	 -669 	 -2175 	 -737.1 	 136.57 	 210.42 	
-2039 	 -690 	 -1688 	 -684.005 	 123.165 	 144.9 	
-1787 	 -902 	 -1010 	 -628.145 	 110.845 	 87.045 	
-1873 	 -1393 	 -361 	 -563.045 	 96.985 	 33.04 	
-1997 	 -1540 	 -113 	 -485.695 	 74.165 	 -21.0 	
-1843 	 -1628 	 -659 	 -406.21 	 46.62 	 -69.335 	
-1741 	 -1597 	 288 	 -319.55 	 29.855 	 -111.755 	
-1492 	 -1613 	 912 	 -222.46 	 9.555 	 -142.66 	
-1212 	 -838 	 579 	 -124.95 	 -11.55 	 -176.785 	
-1144 	 -481 	 110 	 -44.835 	 -23.52 	 -188.405 	
-1123 	 -356 	 -52 	 28.21 	 -30.94 	 -187.215 	
-959 	 -137 	 -183 	 101.78 	 -38.5 	 -178.5 	
-701 	 291 	 -444 	 168.7 	 -44.205 	 -170.765 	
-539 	 551 	 -672 	 219.38 	 -44.38 	 -166.845 	
-602 	 453 	 -785 	 258.195 	 -40.215 	 -164.885 	
-660 	 382 	 -974 	 292.67 	 -36.47 	 -164.815 	
-615 	 536 	 -1173 	 321.965 	 -32.585 	 -166.46 	
-515 	 666 	 -1281 	 341.285 	 -26.74 	 -166.985 	
-515 	 653 	 -1221 	 352.45 	 -17.955 	 -165.27 	
-564 	 602 	 -1130 	 360.255 	 -9.94 	 -162.82 	
-565 	 660 	 -1072 	 365.085 	 -3.78 	 -159.565 	
-545 	 719 	 -998 	 364.98 	 2.52 	 -153.65 	
-605 	 686 	 -887 	 361.34 	 9.485 	 -143.78 	
-726 	 614 	 -753 	 356.79 	 15.19 	 -130.48 	
-769 	 630 	 -651 	 351.715 	 17.85 	 -114.555 	
-740 	 644 	 -593 	 344.435 	 19.39 	 -95.76 	
-736 	 561 	 -518 	 336.315 	 21.35 	 -73.99 	
-795 	 526 	 -439 	 329.175 	 22.47 	 -50.995 	
-848 	 551 	 -380 	 321.79 	 21.77 	 -27.685 	
-878 	 543 	 -347 	 313.145 	 19.915 	 -4.935 	
-922 	 494 	 -323 	 304.43 	 17.955 	 16.625 	
-975 	 429 	 -283 	 296.31 	 15.47 	 35.63 	
-1012 	 353 	 -235 	 288.085 	 12.075 	 51.625 	
-1045 	 236 	 -198 	 279.44 	 8.19 	 64.05 	
-1078 	 82 	 -183 	 271.145 	 4.27 	 72.17 	
-1095 	 -69 	 -168 	 263.62 	 0.42 	 75.81 	
-1094 	 -162 	 -143 	 256.865 	 -3.36 	 73.92 	
-1076 	 -222 	 -124 	 250.005 	 -6.79 	 67.06 	
-1048 	 -246 	 -122 	 243.32 	 -9.73 	 55.335 	
-1040 	 -233 	 -117 	 236.53 	 -12.005 	 39.27 	
-1041 	 -218 	 -90 	 229.145 	 -13.79 	 20.125 	
-1042 	 -241 	 -83 	 220.78 	 -15.015 	 -0.49 	
-1073 	 -249 	 -62 	 212.835 	 -15.645 	 -21.63 	
-1087 	 -221 	 -38 	 205.135 	 -16.31 	 -42.49 	
-1075 	 -165 	 -11 	 197.33 	 -17.185 	 -61.775 	
-1075 	 -108 	 12 	 189.175 	 -17.85 	 -78.96 	
-1104 	 -30 	 10 	 180.845 	 -18.095 	 -93.555 	
-1150 	 20 	 7 	 172.27 	 -18.375 	 -104.475 	
-1179 	 46 	 19 	 163.31 	 -19.46 	 -112.21 	
-1156 	 44 	 30 	 154.49 	 -20.895 	 -116.48 	
-1130 	 50 	 31 	 145.81 	 -21.665 	 -117.32 	
-1165 	 44 	 73 	 137.235 	 -22.19 	 -115.5 	
-1165 	 30 	 93 	 129.115 	 -24.08 	 -111.615 	
-1148 	 56 	 107 	 121.765 	 -26.075 	 -106.855 	
-1127 	 87 	 110 	 114.205 	 -27.65 	 -101.255 	
-1120 	 92 	 117 	 106.295 	 -28.91 	 -95.375 	
-1118 	 71 	 132 	 98.49 	 -30.275 	 -89.355 	
-1088 	 43 	 147 	 91.35 	 -32.025 	 -83.37 	
-1064 	 8 	 152 	 84.42 	 -33.32 	 -77.35 	
-1064 	 -27 	 156 	 78.05 	 -34.335 	 -71.505 	
-1060 	 -50 	 164 	 72.1 	 -35.56 	 -66.08 	
-1048 	 -75 	 175 	 66.465 	 -36.785 	 -61.32 	
-1034 	 -123 	 182 	 61.075 	 -37.87 	 -57.26 	
-1018 	 -165 	 194 	 56.21 	 -38.605 	 -54.18 	
-996 	 -202 	 203 	 51.94 	 -39.41 	 -51.975 	
-960 	 -234 	 217 	 47.985 	 -40.145 	 -50.715 	
-922 	 -267 	 236 	 44.555 	 -40.6 	 -50.155 	
-908 	 -307 	 262 	 41.37 	 -40.53 	 -49.91 	
-897 	 -358 	 286 	 38.535 	 -40.46 	 -49.91 	
-872 	 -398 	 307 	 36.295 	 -40.565 	 -49.945 	
-845 	 -433 	 327 	 34.37 	 -40.355 	 -49.84 	
-834 	 -461 	 350 	 32.83 	 -40.005 	 -49.42 	
-827 	 -483 	 380 	 31.535 	 -39.515 	 -48.755 	
-809 	 -502 	 413 	 30.555 	 -39.06 	 -47.705 	
-815 	 -536 	 468 	 29.68 	 -37.905 	 -45.92 	
-838 	 -603 	 542 	 28.595 	 -36.435 	 -42.7 	
-891 	 -701 	 659 	 27.51 	 -34.79 	 -37.625 	
-878 	 -790 	 795 	 26.74 	 -34.055 	 -30.52 	
-821 	 -905 	 896 	 25.585 	 -33.32 	 -21.735 	
-736 	 -1093 	 1000 	 23.345 	 -30.555 	 -11.235 	
-742 	 -1196 	 1189 	 20.125 	 -25.585 	 -1.47 	
-576 	 -1338 	 1398 	 14.875 	 -20.895 	 6.51 	
-266 	 -1263 	 1597 	 7.105 	 -15.96 	 8.19 	
79 	 -900 	 1844 	 -4.865 	 -8.785 	 3.745 	
709 	 -302 	 1883 	 -24.955 	 -0.525 	 -9.1 	
1230 	 -473 	 1634 	 -56.49 	 10.29 	 -23.065 	
1461 	 -1073 	 1629 	 -87.185 	 23.905 	 -30.695 	
1366 	 -761 	 1934 	 -114.275 	 39.83 	 -25.865 	
775 	 281 	 2025 	 -154.315 	 53.935 	 4.165 	
13 	 840 	 1849 	 -210.875 	 58.555 	 65.31 	
-446 	 1135 	 1443 	 -266.21 	 54.915 	 150.22 	
-900 	 1882 	 843 	 -317.66 	 53.76 	 247.03 	
-1559 	 2406 	 314 	 -378.245 	 56.875 	 345.38 	
-1865 	 2242 	 -274 	 -445.095 	 58.345 	 429.87 	
-2094 	 2260 	 -904 	 -505.435 	 61.81 	 482.615 	
-2348 	 2564 	 -1501 	 -559.79 	 68.81 	 502.145 	
-2582 	 2708 	 -1986 	 -614.18 	 78.435 	 491.365 	
-2825 	 2654 	 -2325 	 -667.625 	 89.425 	 455.91 	
-3016 	 2452 	 -2556 	 -714.175 	 98.525 	 404.215 	
-3029 	 2127 	 -2663 	 -750.12 	 102.9 	 341.74 	
-2844 	 1524 	 -2643 	 -774.48 	 102.795 	 272.895 	
-2511 	 760 	 -2508 	 -785.19 	 100.38 	 199.325 	
-2361 	 70 	 -2191 	 -782.88 	 96.285 	 115.43 	
-2215 	 -440 	 -1737 	 -766.885 	 86.73 	 28.07 	
-1925 	 -853 	 -1235 	 -737.905 	 72.065 	 -59.185 	
-1883 	 -1320 	 -764 	 -693.875 	 55.86 	 -137.27 	
-1857 	 -1648 	 -232 	 -637.21 	 34.965 	 -204.47 	
-1251 	 -1778 	 162 	 -578.375 	 10.08 	 -262.465 	
-767 	 -1884 	 280 	 -515.06 	 -6.615 	 -309.47 	
-571 	 -1983 	 176 	 -432.425 	 -14.315 	 -329.525 	
-599 	 -1628 	 133 	 -337.155 	 -18.655 	 -321.195 	
-510 	 -1062 	 181 	 -246.155 	 -20.825 	 -283.01 	
-360 	 -802 	 204 	 -168.315 	 -17.815 	 -223.16 	
-283 	 -771 	 91 	 -97.58 	 -9.94 	 -159.145 	
-191 	 -699 	 -125 	 -28.35 	 -0.14 	 -103.74 	
-49 	 -514 	 -202 	 38.465 	 11.585 	 -61.145 	
35 	 -345 	 -239 	 98.91 	 24.99 	 -32.585 	
89 	 -259 	 -348 	 151.83 	 39.375 	 -17.99 	
42 	 -87 	 -507 	 198.03 	 54.67 	 -13.825 	
-50 	 88 	 -596 	 236.495 	 69.545 	 -9.94 	
-30 	 254 	 -680 	 265.825 	 83.79 	 -13.265 	
-93 	 394 	 -765 	 286.545 	 98.735 	 -18.06 	
-157 	 360 	 -829 	 301.945 	 112.21 	 -22.54 	
-209 	 490 	 -888 	 314.51 	 123.2 	 -30.52 	
-218 	 590 	 -914 	 320.81 	 133.315 	 -38.43 	
-292 	 538 	 -873 	 321.72 	 143.64 	 -44.975 	
-398 	 442 	 -824 	 320.95 	 152.11 	 -49.49 	
-507 	 419 	 -772 	 319.13 	 158.095 	 -52.15 	
-588 	 393 	 -718 	 315.105 	 161.84 	 -51.695 	
-660 	 308 	 -671 	 309.54 	 164.535 	 -47.95 	
-772 	 212 	 -622 	 304.115 	 166.11 	 -41.335 	
-900 	 135 	 -564 	 299.075 	 165.76 	 -32.06 	
-990 	 88 	 -519 	 294.21 	 163.03 	 -21.21 	
-1058 	 21 	 -481 	 289.205 	 159.25 	 -8.61 	
-1155 	 -26 	 -451 	 284.795 	 154.805 	 4.515 	
-1283 	 -17 	 -416 	 280.91 	 148.925 	 17.43 	
-1385 	 55 	 -360 	 276.99 	 141.575 	 29.575 	
-1395 	 98 	 -335 	 272.02 	 132.895 	 41.02 	
-1414 	 37 	 -331 	 266.385 	 124.425 	 52.325 	
-1446 	 -35 	 -338 	 262.08 	 115.605 	 63.14 	
-1443 	 -39 	 -337 	 258.405 	 106.225 	 72.73 	
-1436 	 -25 	 -330 	 254.275 	 96.775 	 80.955 	
-1410 	 -47 	 -312 	 249.305 	 87.675 	 87.255 	
-1388 	 -71 	 -296 	 244.405 	 78.505 	 90.86 	
-1340 	 -85 	 -298 	 239.645 	 69.37 	 92.085 	
-1284 	 -99 	 -310 	 234.675 	 60.76 	 91.175 	
-1248 	 -140 	 -321 	 229.355 	 52.85 	 88.76 	
-1247 	 -168 	 -328 	 224.35 	 45.36 	 85.05 	
-1257 	 -177 	 -333 	 219.555 	 38.01 	 79.94 	
-1261 	 -196 	 -332 	 214.515 	 30.8 	 73.85 	
-1255 	 -220 	 -323 	 209.545 	 23.835 	 66.57 	
-1245 	 -237 	 -305 	 204.715 	 17.255 	 57.4 	
-1214 	 -240 	 -292 	 199.955 	 11.13 	 46.83 	
-1188 	 -270 	 -286 	 194.985 	 5.32 	 34.79 	
-1176 	 -303 	 -277 	 190.12 	 0.07 	 20.86 	
-1161 	 -318 	 -269 	 185.71 	 -4.445 	 5.565 	
-1148 	 -307 	 -262 	 181.3 	 -8.89 	 -10.85 	
-1124 	 -315 	 -256 	 176.61 	 -13.125 	 -27.65 	
-1101 	 -328 	 -249 	 172.34 	 -16.59 	 -44.1 	
-1118 	 -352 	 -240 	 168.245 	 -19.635 	 -59.15 	
-1341 	 -435 	 -305 	 163.8 	 -23.31 	 -71.33 	
-1099 	 -695 	 -267 	 161.665 	 -28.84 	 -74.62 	
-1071 	 -168 	 -192 	 161.14 	 -31.99 	 -85.12 	
-1091 	 -217 	 -56 	 154.665 	 -31.92 	 -81.235 	
-1259 	 -286 	 6 	 149.765 	 -35.56 	 -83.09 	
-1173 	 -230 	 -33 	 148.33 	 -42.245 	 -85.12 	
-1069 	 -81 	 -76 	 144.935 	 -45.71 	 -87.815 	
-1190 	 -152 	 -50 	 138.11 	 -46.13 	 -88.97 	
-1280 	 -281 	 7 	 133.105 	 -49.315 	 -89.81 	
-1179 	 -262 	 26 	 130.235 	 -54.95 	 -91.105 	
-1098 	 -229 	 61 	 125.895 	 -57.96 	 -90.86 	
-1211 	 -288 	 161 	 119.63 	 -58.555 	 -88.725 	
-1373 	 -359 	 311 	 113.365 	 -61.145 	 -85.225 	
-1400 	 -416 	 437 	 107.17 	 -66.465 	 -80.325 	
-1393 	 -374 	 559 	 100.38 	 -70.805 	 -73.675 	
-1432 	 -256 	 714 	 90.37 	 -72.94 	 -65.66 	
-1364 	 -43 	 952 	 75.565 	 -75.18 	 -57.47 	
-1140 	 13 	 1135 	 54.985 	 -78.47 	 -49.7 	
-850 	 -124 	 1378 	 30.135 	 -79.31 	 -41.405 	
-493 	 -515 	 1672 	 1.855 	 -77.525 	 -33.285 	
-71 	 -613 	 1991 	 -26.985 	 -73.675 	 -26.005 	
335 	 -412 	 2225 	 -61.915 	 -68.39 	 -18.515 	
720 	 -608 	 2254 	 -106.12 	 -62.615 	 -5.46 	
875 	 -808 	 2170 	 -151.585 	 -56.175 	 12.705 	
727 	 -272 	 1946 	 -197.47 	 -48.265 	 37.17 	
171 	 589 	 1652 	 -253.225 	 -39.13 	 71.96 	
-442 	 957 	 1270 	 -318.08 	 -32.62 	 117.845 	
-875 	 1285 	 687 	 -381.5 	 -29.295 	 167.02 	
-1220 	 1868 	 53 	 -443.625 	 -24.92 	 215.985 	
-1452 	 2150 	 -607 	 -509.985 	 -18.725 	 261.45 	
-1608 	 2096 	 -1169 	 -575.61 	 -10.045 	 298.375 	
-1749 	 2201 	 -1684 	 -632.87 	 0.07 	 322.525 	
-1838 	 2366 	 -2195 	 -683.235 	 12.6 	 337.12 	
-2023 	 2241 	 -2597 	 -728.14 	 29.75 	 345.17 	
-2218 	 1969 	 -2825 	 -761.145 	 48.86 	 347.725 	
-2198 	 1681 	 -2921 	 -780.745 	 67.445 	 341.215 	
-2024 	 1436 	 -2926 	 -789.845 	 85.61 	 321.055 	
-1663 	 757 	 -2717 	 -788.235 	 103.425 	 289.205 	
-1291 	 -40 	 -2404 	 -766.815 	 121.17 	 242.235 	
-871 	 -539 	 -2065 	 -725.025 	 135.625 	 183.085 	
-611 	 -645 	 -1666 	 -671.16 	 146.405 	 120.4 	
-563 	 -1466 	 -1152 	 -611.73 	 154.77 	 71.68 	
-736 	 -1657 	 -791 	 -536.55 	 157.395 	 31.675 	
-592 	 -1661 	 -491 	 -454.51 	 155.925 	 11.235 	
-688 	 -1874 	 -170 	 -371.035 	 158.27 	 10.92 	
-923 	 -1934 	 4 	 -279.405 	 158.655 	 24.185 	
-895 	 -1712 	 28 	 -181.51 	 153.195 	 39.9 	
-812 	 -1361 	 -78 	 -86.135 	 147.56 	 54.425 	
-705 	 -1121 	 -160 	 2.17 	 144.375 	 63.91 	
-632 	 -765 	 -269 	 82.845 	 141.155 	 60.83 	
-631 	 -451 	 -369 	 153.37 	 137.095 	 46.2 	
-675 	 -116 	 -550 	 212.975 	 131.6 	 21.315 	
-666 	 164 	 -757 	 260.785 	 125.895 	 -9.66 	
-669 	 436 	 -915 	 298.34 	 122.325 	 -43.96 	
-699 	 627 	 -1061 	 325.535 	 120.575 	 -78.225 	
-760 	 718 	 -1191 	 343.28 	 119.49 	 -110.74 	
-798 	 779 	 -1289 	 353.71 	 117.915 	 -139.475 	
-800 	 808 	 -1313 	 357.63 	 116.865 	 -163.135 	
-834 	 805 	 -1277 	 355.565 	 117.145 	 -180.425 	
-914 	 743 	 -1210 	 348.88 	 117.215 	 -190.82 	
-983 	 682 	 -1135 	 339.85 	 115.675 	 -195.125 	
-1010 	 663 	 -1039 	 329.455 	 112.7 	 -193.83 	
-1030 	 600 	 -943 	 317.205 	 109.585 	 -186.165 	
-1073 	 456 	 -851 	 304.08 	 105.91 	 -172.725 	
-1128 	 293 	 -738 	 291.725 	 101.08 	 -154.805 	
-1134 	 177 	 -628 	 280.63 	 94.57 	 -133.175 	
-1128 	 75 	 -545 	 269.78 	 87.255 	 -109.41 	
-1133 	 -38 	 -476 	 259.42 	 79.8 	 -84.875 	
-1168 	 -103 	 -435 	 250.495 	 71.96 	 -61.985 	
-1174 	 -119 	 -411 	 243.18 	 63.42 	 -42.42 	
-1135 	 -127 	 -366 	 235.445 	 54.915 	 -27.09 	
-1087 	 -198 	 -328 	 226.8 	 46.795 	 -15.995 	
-1098 	 -279 	 -298 	 219.135 	 39.585 	 -9.45 	
-1142 	 -303 	 -247 	 211.785 	 32.305 	 -7.455 	
-1105 	 -321 	 -256 	 203.49 	 24.71 	 -9.94 	
-1006 	 -370 	 -318 	 195.755 	 17.92 	 -15.96 	
-951 	 -312 	 -368 	 189.315 	 12.81 	 -25.305 	
-912 	 -192 	 -394 	 182.315 	 8.085 	 -36.995 	
-841 	 -107 	 -416 	 173.845 	 3.535 	 -49.315 	
-795 	 -65 	 -444 	 164.99 	 0.0 	 -61.005 	
-810 	 -38 	 -460 	 156.485 	 -2.485 	 -69.93 	
-863 	 -9 	 -466 	 148.26 	 -5.46 	 -75.18 	
-873 	 0 	 -459 	 140.42 	 -9.275 	 -75.915 	
-868 	 3 	 -438 	 132.86 	 -12.985 	 -72.38 	
-871 	 -20 	 -415 	 125.58 	 -16.415 	 -64.785 	
-909 	 -30 	 -398 	 119.07 	 -20.23 	 -54.39 	
-913 	 -34 	 -398 	 113.505 	 -24.885 	 -42.175 	
-901 	 -32 	 -400 	 108.115 	 -29.26 	 -29.015 	
-913 	 -57 	 -389 	 102.76 	 -33.32 	 -15.575 	
-922 	 -108 	 -374 	 97.93 	 -37.52 	 -2.695 	
-915 	 -145 	 -358 	 93.94 	 -42.105 	 8.995 	
-893 	 -172 	 -345 	 90.23 	 -46.48 	 19.215 	
-885 	 -201 	 -328 	 86.765 	 -50.365 	 27.895 	
-889 	 -212 	 -316 	 83.72 	 -54.18 	 34.72 	
-888 	 -222 	 -312 	 81.095 	 -58.03 	 39.865 	
-879 	 -232 	 -303 	 78.54 	 -61.67 	 43.295 	
-875 	 -248 	 -301 	 76.195 	 -65.03 	 45.36 	
-899 	 -254 	 -303 	 74.06 	 -68.11 	 46.025 	
-926 	 -274 	 -297 	 72.17 	 -71.12 	 45.57 	
-925 	 -304 	 -287 	 70.595 	 -74.445 	 43.89 	
-904 	 -325 	 -279 	 69.51 	 -77.63 	 41.125 	
-892 	 -331 	 -273 	 68.6 	 -80.115 	 37.345 	
-893 	 -338 	 -261 	 67.935 	 -82.565 	 32.69 	
-874 	 -350 	 -252 	 67.375 	 -85.225 	 27.51 	
-833 	 -372 	 -254 	 67.06 	 -87.71 	 22.12 	
-799 	 -387 	 -256 	 67.06 	 -89.6 	 16.905 	
-787 	 -401 	 -253 	 67.27 	 -91.07 	 12.215 	
-773 	 -409 	 -247 	 67.69 	 -92.855 	 8.155 	
-742 	 -414 	 -229 	 68.285 	 -94.64 	 4.83 	
-759 	 -391 	 -235 	 68.95 	 -95.83 	 2.555 	
-799 	 -375 	 -235 	 69.405 	 -96.95 	 1.19 	
-823 	 -384 	 -210 	 69.965 	 -98.77 	 0.98 	
-830 	 -352 	 -203 	 71.085 	 -101.01 	 1.33 	
-851 	 -305 	 -219 	 71.61 	 -102.795 	 2.87 	
-915 	 -339 	 -253 	 70.91 	 -104.44 	 5.88 	
-970 	 -410 	 -237 	 70.7 	 -106.715 	 10.15 	
-968 	 -412 	 -185 	 72.415 	 -109.62 	 15.575 	
-975 	 -339 	 -118 	 73.85 	 -112.28 	 22.645 	
-1053 	 -348 	 -41 	 72.625 	 -114.17 	 32.165 	
-1269 	 -576 	 126 	 70.245 	 -115.955 	 44.765 	
-1539 	 -922 	 357 	 68.635 	 -119.385 	 60.375 	
-1863 	 -1306 	 613 	 65.66 	 -123.095 	 79.03 	
-2073 	 -1760 	 882 	 60.515 	 -126.84 	 99.015 	
-2096 	 -1982 	 1072 	 56.525 	 -131.425 	 113.05 	
-1894 	 -1856 	 1220 	 51.52 	 -136.08 	 115.115 	
-1243 	 -1255 	 1280 	 40.425 	 -137.76 	 94.85 	
-612 	 -718 	 1296 	 16.555 	 -130.2 	 48.65 	
-398 	 -1228 	 1317 	 -15.54 	 -115.99 	 -15.855 	
-354 	 -2278 	 1420 	 -40.775 	 -101.99 	 -90.195 	
-382 	 -2393 	 1636 	 -59.955 	 -87.675 	 -165.585 	
-495 	 -1535 	 1814 	 -89.46 	 -72.065 	 -227.57 	
-530 	 -954 	 1720 	 -134.82 	 -58.975 	 -265.79 	
-611 	 -662 	 1422 	 -180.88 	 -48.93 	 -280.21 	
-866 	 100 	 1047 	 -221.41 	 -41.335 	 -271.25 	
-1201 	 1078 	 704 	 -268.66 	 -37.31 	 -236.04 	
-1401 	 1426 	 331 	 -326.375 	 -36.855 	 -175.28 	
-1510 	 1499 	 -109 	 -381.99 	 -36.785 	 -99.365 	
-1686 	 1913 	 -519 	 -432.18 	 -35.105 	 -21.0 	
-1780 	 2159 	 -934 	 -483.7 	 -32.445 	 52.885 	
-1745 	 2053 	 -1337 	 -533.05 	 -27.09 	 112.77 	
-1648 	 1997 	 -1690 	 -573.475 	 -16.555 	 152.81 	
-1521 	 1870 	 -1956 	 -606.445 	 -1.33 	 175.595 	
-1387 	 1523 	 -2090 	 -632.555 	 17.185 	 185.395 	
-1237 	 1126 	 -2108 	 -648.13 	 37.625 	 187.46 	
-973 	 881 	 -2033 	 -651.385 	 59.605 	 183.47 	
-655 	 570 	 -1934 	 -643.825 	 84.0 	 178.745 	
-394 	 205 	 -1819 	 -624.785 	 110.005 	 174.02 	
-145 	 -102 	 -1624 	 -592.69 	 137.235 	 174.86 	
0 	 -267 	 -1375 	 -551.565 	 164.5 	 179.27 	
92 	 -573 	 -1144 	 -504.42 	 190.61 	 191.73 	
118 	 -939 	 -962 	 -448.385 	 215.425 	 208.775 	
135 	 -1132 	 -799 	 -382.025 	 238.175 	 223.44 	
124 	 -1210 	 -691 	 -310.66 	 258.615 	 235.795 	
116 	 -1244 	 -596 	 -237.965 	 274.96 	 241.185 	
102 	 -1190 	 -567 	 -164.99 	 286.755 	 237.685 	
-19 	 -1097 	 -601 	 -92.68 	 295.12 	 228.41 	
-207 	 -862 	 -549 	 -23.52 	 299.18 	 212.205 	
-398 	 -575 	 -479 	 38.01 	 297.43 	 191.765 	
-568 	 -421 	 -466 	 91.07 	 290.57 	 167.93 	
-601 	 -216 	 -542 	 138.215 	 279.37 	 140.385 	
-652 	 93 	 -626 	 178.255 	 266.56 	 109.55 	
-800 	 300 	 -659 	 208.845 	 252.0 	 80.08 	
-875 	 392 	 -717 	 231.35 	 233.87 	 51.73 	
-935 	 516 	 -808 	 247.45 	 214.375 	 25.025 	
-1046 	 487 	 -876 	 257.635 	 195.09 	 5.145 	
-1164 	 519 	 -880 	 263.865 	 174.685 	 -9.38 	
-1212 	 613 	 -843 	 265.16 	 152.25 	 -17.465 	
-1204 	 582 	 -816 	 261.38 	 129.22 	 -18.9 	
-1192 	 497 	 -801 	 255.5 	 106.61 	 -16.065 	
-1171 	 462 	 -781 	 248.92 	 84.315 	 -11.27 	
-1141 	 457 	 -733 	 240.87 	 62.335 	 -5.6 	
-1101 	 398 	 -683 	 230.965 	 40.565 	 0.105 	
-1022 	 315 	 -671 	 220.395 	 19.635 	 4.97 	
-953 	 262 	 -671 	 210.28 	 0.595 	 8.995 	
-953 	 241 	 -646 	 200.34 	 -16.275 	 11.83 	
-974 	 192 	 -596 	 189.875 	 -32.2 	 13.265 	
-959 	 111 	 -570 	 179.06 	 -47.495 	 12.39 	
-937 	 3 	 -545 	 168.875 	 -61.215 	 8.435 	
-889 	 -73 	 -557 	 159.705 	 -73.045 	 0.455 	
-828 	 -102 	 -575 	 151.69 	 -83.125 	 -10.99 	
-756 	 -108 	 -592 	 143.92 	 -91.84 	 -25.2 	
-687 	 -125 	 -605 	 136.535 	 -98.875 	 -40.005 	
-653 	 -152 	 -610 	 129.955 	 -104.265 	 -53.725 	
-654 	 -176 	 -595 	 124.495 	 -108.815 	 -64.925 	
-654 	 -199 	 -572 	 119.35 	 -112.7 	 -72.555 	
-630 	 -252 	 -552 	 114.415 	 -115.64 	 -75.95 	
-624 	 -326 	 -541 	 110.565 	 -118.125 	 -75.32 	
-629 	 -370 	 -527 	 108.01 	 -120.295 	 -71.365 	
-618 	 -364 	 -518 	 106.155 	 -122.255 	 -65.38 	
-599 	 -360 	 -512 	 104.055 	 -123.935 	 -58.45 	
-596 	 -371 	 -510 	 102.06 	 -124.95 	 -51.415 	
-606 	 -386 	 -509 	 100.625 	 -125.65 	 -44.905 	
-628 	 -377 	 -509 	 99.295 	 -126.21 	 -39.655 	
-644 	 -372 	 -501 	 98.035 	 -126.84 	 -35.07 	
-670 	 -374 	 -499 	 96.67 	 -127.295 	 -31.885 	
-689 	 -381 	 -493 	 95.69 	 -127.575 	 -29.75 	
-708 	 -385 	 -490 	 94.955 	 -127.995 	 -28.735 	
-717 	 -393 	 -488 	 94.29 	 -128.345 	 -28.525 	
-732 	 -402 	 -483 	 93.94 	 -128.415 	 -29.085 	
-738 	 -435 	 -478 	 93.8 	 -128.59 	 -29.96 	
-709 	 -465 	 -475 	 93.975 	 -128.695 	 -31.36 	
-698 	 -498 	 -463 	 94.43 	 -128.415 	 -32.69 	
-712 	 -505 	 -448 	 95.305 	 -127.995 	 -34.23 	
-717 	 -498 	 -438 	 96.355 	 -127.645 	 -35.42 	
-726 	 -471 	 -433 	 97.65 	 -127.54 	 -36.47 	
-746 	 -443 	 -427 	 98.735 	 -126.91 	 -36.89 	
-775 	 -420 	 -415 	 99.715 	 -126.175 	 -36.75 	
-815 	 -388 	 -402 	 100.835 	 -125.79 	 -36.225 	
-840 	 -339 	 -398 	 101.99 	 -125.825 	 -35.21 	
-858 	 -307 	 -390 	 102.69 	 -125.51 	 -33.53 	
-892 	 -295 	 -373 	 103.32 	 -125.055 	 -31.185 	
-909 	 -306 	 -361 	 103.915 	 -125.055 	 -28.105 	
-906 	 -335 	 -351 	 104.615 	 -125.265 	 -24.255 	
-900 	 -358 	 -342 	 105.595 	 -125.23 	 -19.845 	
-886 	 -365 	 -335 	 106.785 	 -125.09 	 -15.33 	
-854 	 -376 	 -333 	 107.765 	 -124.81 	 -11.095 	
-814 	 -402 	 -325 	 108.64 	 -124.285 	 -7.385 	
-771 	 -420 	 -307 	 109.9 	 -123.305 	 -4.515 	
-759 	 -421 	 -291 	 110.845 	 -121.8 	 -2.205 	
-783 	 -414 	 -286 	 111.895 	 -120.715 	 -0.35 	
-810 	 -394 	 -273 	 113.4 	 -119.7 	 1.015 	
-852 	 -381 	 -229 	 114.87 	 -118.405 	 2.275 	
-883 	 -490 	 -133 	 115.08 	 -116.55 	 4.235 	
-964 	 -716 	 -5 	 114.765 	 -114.45 	 7.0 	
-1136 	 -1000 	 145 	 114.8 	 -112.56 	 10.395 	
-1415 	 -1383 	 425 	 113.89 	 -111.195 	 14.84 	
-1596 	 -1781 	 765 	 109.69 	 -109.62 	 18.55 	
-1302 	 -1768 	 953 	 104.23 	 -108.675 	 14.035 	
-458 	 -1419 	 1004 	 94.99 	 -105.105 	 -1.645 	
491 	 -797 	 1047 	 79.59 	 -96.11 	 -36.47 	
1362 	 -1062 	 1008 	 52.395 	 -84.035 	 -83.09 	
1784 	 -2347 	 1202 	 25.095 	 -65.975 	 -131.775 	
1619 	 -2643 	 1687 	 7.105 	 -42.7 	 -173.32 	
950 	 -1607 	 2047 	 -21.0 	 -23.135 	 -189.035 	
428 	 -766 	 2135 	 -71.89 	 -15.365 	 -166.355 	
126 	 -463 	 1911 	 -128.415 	 -15.435 	 -108.78 	
-330 	 466 	 1517 	 -177.135 	 -16.905 	 -26.18 	
-1043 	 1479 	 1105 	 -233.24 	 -20.3 	 75.845 	
-1620 	 1635 	 750 	 -303.205 	 -28.42 	 185.885 	
-1761 	 1493 	 250 	 -374.29 	 -38.43 	 282.625 	
-1851 	 1692 	 -327 	 -441.7 	 -42.875 	 352.765 	
-2136 	 1806 	 -828 	 -510.65 	 -41.125 	 392.07 	
-2615 	 1901 	 -1253 	 -577.325 	 -38.675 	 399.105 	
-2901 	 2099 	 -1738 	 -637.07 	 -39.06 	 379.085 	
-2962 	 2262 	 -2177 	 -689.57 	 -37.59 	 342.545 	
-3064 	 2223 	 -2440 	 -736.33 	 -32.55 	 298.69 	
-3206 	 1820 	 -2577 	 -774.515 	 -29.54 	 254.17 	
-2933 	 1084 	 -2620 	 -795.655 	 -31.605 	 212.555 	
-2637 	 603 	 -2445 	 -795.69 	 -32.935 	 171.43 	
-2559 	 233 	 -2049 	 -781.655 	 -33.74 	 136.85 	
-2346 	 -739 	 -1444 	 -758.765 	 -37.38 	 111.51 	
-1924 	 -1274 	 -982 	 -719.67 	 -43.435 	 78.89 	
-1335 	 -1889 	 -801 	 -664.895 	 -46.515 	 49.0 	
-1126 	 -2141 	 -591 	 -592.34 	 -43.89 	 17.64 	
-1024 	 -2343 	 -307 	 -510.195 	 -42.735 	 -10.43 	
-850 	 -2507 	 -111 	 -420.07 	 -41.72 	 -31.43 	
-694 	 -2438 	 -182 	 -324.73 	 -36.015 	 -50.05 	
-471 	 -2446 	 -316 	 -232.89 	 -26.775 	 -69.685 	
-456 	 -2178 	 614 	 -135.975 	 -11.76 	 -92.575 	
-573 	 -1607 	 280 	 -43.715 	 -4.06 	 -115.535 	
-208 	 -1142 	 -240 	 34.23 	 0.07 	 -136.885 	
314 	 -916 	 -262 	 103.81 	 13.72 	 -153.93 	
257 	 -407 	 -446 	 173.11 	 38.045 	 -161.91 	
25 	 213 	 -529 	 231.525 	 59.745 	 -163.765 	
1 	 667 	 -496 	 271.985 	 73.64 	 -160.615 	
157 	 792 	 -622 	 300.685 	 87.36 	 -149.485 	
82 	 908 	 -813 	 323.4 	 106.015 	 -136.325 	
-191 	 1008 	 -864 	 339.255 	 123.935 	 -121.87 	
-336 	 1016 	 -866 	 347.69 	 134.68 	 -108.045 	
-310 	 939 	 -915 	 350.49 	 141.155 	 -95.9 	
-299 	 849 	 -967 	 350.315 	 148.505 	 -85.47 	
-429 	 778 	 -969 	 347.655 	 156.065 	 -75.95 	
-561 	 675 	 -918 	 342.09 	 159.565 	 -67.97 	
-606 	 548 	 -873 	 334.565 	 159.285 	 -61.495 	
-652 	 436 	 -842 	 326.62 	 158.62 	 -55.125 	
-780 	 336 	 -788 	 318.36 	 157.535 	 -48.23 	
-934 	 225 	 -703 	 309.82 	 154.315 	 -40.145 	
-1036 	 147 	 -627 	 301.56 	 148.33 	 -30.94 	
-1122 	 134 	 -566 	 293.825 	 140.945 	 -20.545 	
-1221 	 128 	 -540 	 286.545 	 132.825 	 -8.995 	
-1313 	 110 	 -522 	 279.86 	 123.725 	 3.325 	
-1383 	 82 	 -494 	 273.56 	 113.365 	 15.61 	
-1409 	 21 	 -465 	 267.645 	 102.375 	 27.72 	
-1425 	 -68 	 -434 	 262.01 	 91.245 	 38.815 	
-1427 	 -187 	 -403 	 257.04 	 79.905 	 48.23 	
-1413 	 -293 	 -385 	 253.015 	 68.495 	 54.285 	
-1370 	 -369 	 -370 	 249.41 	 57.61 	 56.665 	
-1333 	 -430 	 -337 	 245.91 	 47.215 	 55.055 	
-1264 	 -483 	 -314 	 242.06 	 37.1 	 49.35 	
-1181 	 -512 	 -338 	 238.63 	 27.755 	 40.32 	
-1111 	 -478 	 -380 	 235.865 	 19.565 	 29.26 	
-1059 	 -412 	 -411 	 232.435 	 12.215 	 17.15 	
-1006 	 -407 	 -427 	 227.815 	 5.565 	 5.95 	
-988 	 -415 	 -431 	 223.58 	 -0.28 	 -4.095 	
-978 	 -400 	 -430 	 219.73 	 -5.6 	 -12.075 	
-964 	 -377 	 -414 	 215.565 	 -10.85 	 -17.675 	
-955 	 -362 	 -398 	 211.295 	 -16.17 	 -20.685 	
-952 	 -330 	 -392 	 207.69 	 -21.315 	 -21.385 	
-983 	 -260 	 -389 	 204.19 	 -25.865 	 -20.195 	
-1008 	 -205 	 -373 	 200.515 	 -30.485 	 -17.29 	
-1018 	 -213 	 -344 	 196.455 	 -35.35 	 -13.055 	
-1008 	 -265 	 -312 	 192.64 	 -40.32 	 -7.945 	
-1010 	 -351 	 -267 	 189.07 	 -44.73 	 -2.59 	
-1050 	 -419 	 -224 	 186.06 	 -49.0 	 2.135 	
-1063 	 -457 	 -199 	 183.365 	 -53.515 	 5.215 	
-1031 	 -487 	 -204 	 180.985 	 -58.03 	 5.565 	
-997 	 -470 	 -214 	 178.675 	 -62.055 	 2.73 	
-965 	 -460 	 -215 	 175.98 	 -65.275 	 -2.905 	
-942 	 -444 	 -206 	 172.97 	 -67.9 	 -12.32 	
-916 	 -433 	 -191 	 169.645 	 -70.245 	 -24.255 	
-882 	 -419 	 -187 	 166.11 	 -72.17 	 -37.73 	
-869 	 -443 	 -174 	 162.61 	 -73.36 	 -51.59 	
-873 	 -443 	 -155 	 159.285 	 -74.375 	 -65.135 	
-888 	 -400 	 -126 	 156.1 	 -75.285 	 -77.245 	
-907 	 -333 	 -87 	 152.495 	 -75.88 	 -86.835 	
-920 	 -321 	 -43 	 148.295 	 -76.51 	 -92.995 	
-904 	 -324 	 -18 	 144.375 	 -77.525 	 -95.41 	
-869 	 -348 	 8 	 140.525 	 -78.225 	 -92.995 	
-846 	 -375 	 95 	 136.36 	 -78.61 	 -86.625 	
-813 	 -437 	 231 	 131.355 	 -78.995 	 -75.985 	
-768 	 -556 	 390 	 125.055 	 -79.31 	 -61.705 	
-709 	 -548 	 586 	 117.985 	 -79.52 	 -44.905 	
-527 	 -253 	 838 	 108.745 	 -79.38 	 -25.305 	
-181 	 -91 	 974 	 91.875 	 -78.155 	 -1.085 	
-68 	 -322 	 1177 	 69.965 	 -74.865 	 29.26 	
248 	 -455 	 1459 	 48.02 	 -73.325 	 62.335 	
738 	 -778 	 1489 	 20.685 	 -71.4 	 96.985 	
1328 	 -1146 	 1558 	 -9.415 	 -66.01 	 129.605 	
1820 	 -1240 	 1758 	 -40.53 	 -57.05 	 155.82 	
1914 	 -1061 	 1943 	 -76.65 	 -45.045 	 176.715 	
1600 	 -833 	 2155 	 -120.12 	 -33.495 	 197.82 	
1146 	 -640 	 2199 	 -169.925 	 -25.655 	 222.74 	
658 	 -262 	 2033 	 -222.285 	 -20.895 	 255.745 	
50 	 411 	 1702 	 -277.375 	 -18.41 	 298.62 	
-707 	 933 	 1323 	 -337.82 	 -19.32 	 349.58 	
-1196 	 1183 	 824 	 -400.12 	 -23.8 	 405.58 	
-1680 	 1443 	 247 	 -462.595 	 -24.955 	 459.865 	
-2384 	 1555 	 -211 	 -524.65 	 -22.155 	 507.36 	
-3116 	 1745 	 -642 	 -582.89 	 -22.225 	 537.18 	
-3486 	 1895 	 -1141 	 -638.015 	 -25.76 	 543.69 	
-3688 	 1984 	 -1582 	 -690.9 	 -26.215 	 523.53 	
-4018 	 2069 	 -1931 	 -739.795 	 -23.73 	 478.31 	
-4247 	 1928 	 -2175 	 -782.145 	 -24.85 	 410.69 	
-4170 	 1409 	 -2321 	 -813.855 	 -33.25 	 326.55 	
-3988 	 675 	 -2373 	 -830.62 	 -46.06 	 232.12 	
-3734 	 -109 	 -2142 	 -831.88 	 -61.88 	 130.97 	
-3337 	 -766 	 -1639 	 -817.145 	 -81.69 	 27.72 	
-2924 	 -1006 	 -1012 	 -787.22 	 -106.295 	 -76.475 	
-2700 	 -942 	 -457 	 -748.265 	 -135.1 	 -172.305 	
-2339 	 -1636 	 -100 	 -703.78 	 -165.62 	 -253.925 	
-1625 	 -2169 	 72 	 -635.845 	 -190.96 	 -331.975 	
-1113 	 -1937 	 176 	 -543.34 	 -204.575 	 -392.21 	
-1069 	 -1554 	 359 	 -447.755 	 -212.59 	 -425.81 	
-762 	 -1518 	 357 	 -355.88 	 -221.725 	 -432.565 	
-235 	 -1311 	 282 	 -261.415 	 -220.22 	 -415.975 	
124 	 -1006 	 101 	 -167.16 	 -201.915 	 -374.78 	
198 	 -770 	 -37 	 -78.33 	 -174.475 	 -320.11 	
412 	 -486 	 -143 	 3.08 	 -147.0 	 -262.15 	
723 	 -210 	 -251 	 75.635 	 -115.43 	 -204.33 	
857 	 44 	 -431 	 138.39 	 -76.58 	 -150.64 	
718 	 206 	 -474 	 191.275 	 -35.0 	 -104.02 	
626 	 349 	 -509 	 235.445 	 2.1 	 -67.13 	
631 	 496 	 -609 	 271.775 	 36.05 	 -39.865 	
629 	 606 	 -734 	 300.51 	 69.86 	 -21.315 	
539 	 664 	 -797 	 322.07 	 103.775 	 -10.115 	
409 	 718 	 -798 	 337.785 	 134.68 	 -4.41 	
329 	 796 	 -764 	 347.865 	 160.965 	 -1.925 	
268 	 867 	 -723 	 352.765 	 184.275 	 -0.35 	
144 	 901 	 -660 	 352.975 	 205.59 	 3.255 	
-16 	 934 	 -613 	 349.685 	 223.58 	 10.395 	
-165 	 935 	 -583 	 343.455 	 237.335 	 21.91 	
-303 	 927 	 -565 	 335.405 	 246.855 	 37.31 	
-428 	 882 	 -543 	 326.48 	 253.26 	 56.315 	
-612 	 858 	 -490 	 317.17 	 257.11 	 77.07 	
-824 	 825 	 -419 	 306.985 	 257.67 	 99.295 	
-1012 	 764 	 -366 	 295.785 	 254.66 	 121.87 	
-1194 	 655 	 -325 	 284.725 	 249.06 	 144.305 	
-1409 	 584 	 -259 	 274.75 	 241.395 	 165.375 	
-1569 	 535 	 -212 	 264.985 	 231.28 	 183.61 	
-1670 	 453 	 -179 	 255.255 	 219.38 	 198.275 	
-1735 	 357 	 -151 	 245.7 	 206.92 	 208.285 	
-1777 	 257 	 -122 	 236.32 	 194.04 	 212.415 	
-1782 	 149 	 -105 	 227.36 	 180.81 	 210.245 	
-1760 	 79 	 -103 	 219.135 	 167.65 	 201.04 	
-1712 	 39 	 -109 	 211.085 	 155.155 	 185.15 	
-1662 	 -5 	 -110 	 202.37 	 143.92 	 163.695 	
-1640 	 -68 	 -106 	 193.585 	 133.77 	 138.25 	
-1620 	 -113 	 -100 	 185.465 	 123.865 	 110.32 	
-1575 	 -147 	 -108 	 177.555 	 114.45 	 82.635 	
-1525 	 -143 	 -113 	 170.1 	 105.63 	 57.05 	
-1507 	 -158 	 -101 	 162.995 	 97.72 	 35.63 	
-1491 	 -149 	 -108 	 156.52 	 89.95 	 18.9 	
-1472 	 -121 	 -103 	 150.92 	 82.285 	 7.595 	
-1470 	 -63 	 -98 	 145.74 	 74.585 	 0.7 	
-1449 	 -29 	 -91 	 140.245 	 66.885 	 -1.645 	
-1416 	 -23 	 -85 	 134.82 	 59.5 	 -0.7 	
-1395 	 -19 	 -90 	 130.165 	 52.535 	 2.59 	
-1399 	 3 	 -92 	 125.825 	 46.13 	 7.35 	
-1395 	 11 	 -96 	 121.38 	 39.48 	 12.075 	
-1351 	 7 	 -102 	 117.075 	 32.76 	 15.4 	
-1295 	 9 	 -105 	 113.12 	 27.02 	 16.625 	
-1269 	 5 	 -97 	 108.99 	 22.05 	 15.015 	
-1235 	 -34 	 -88 	 104.755 	 17.115 	 10.92 	
-1165 	 -96 	 -90 	 100.835 	 12.46 	 4.305 	
-1111 	 -145 	 -88 	 97.58 	 9.1 	 -3.815 	
-1114 	 -164 	 -77 	 94.605 	 6.335 	 -12.74 	
-1111 	 -177 	 -68 	 91.735 	 3.115 	 -21.84 	
-1070 	 -183 	 -70 	 89.145 	 -0.105 	 -30.59 	
-1044 	 -179 	 -71 	 86.975 	 -2.45 	 -38.29 	
-1043 	 -175 	 -77 	 84.945 	 -4.305 	 -44.66 	
-1038 	 -172 	 -75 	 83.23 	 -6.475 	 -49.49 	
-1008 	 -171 	 -74 	 81.725 	 -8.89 	 -52.535 	
-988 	 -166 	 -73 	 80.395 	 -10.78 	 -53.9 	
-986 	 -162 	 -61 	 79.24 	 -12.32 	 -53.41 	
-986 	 -158 	 -48 	 78.365 	 -14.245 	 -51.345 	
-973 	 -155 	 -43 	 77.56 	 -16.345 	 -47.74 	
-980 	 -154 	 -41 	 76.965 	 -17.99 	 -42.595 	
-1016 	 -158 	 -38 	 76.44 	 -19.425 	 -36.435 	
-1058 	 -162 	 -25 	 76.51 	 -21.28 	 -29.645 	
-1068 	 -171 	 -3 	 76.685 	 -23.45 	 -22.435 	
-1064 	 -211 	 26 	 76.755 	 -25.48 	 -15.05 	
-1063 	 -280 	 54 	 76.86 	 -27.23 	 -7.28 	
-1058 	 -350 	 83 	 77.84 	 -29.12 	 0.735 	
-1034 	 -424 	 117 	 79.31 	 -30.87 	 8.82 	
-998 	 -506 	 162 	 81.2 	 -32.34 	 16.66 	
-969 	 -599 	 208 	 83.23 	 -33.285 	 24.08 	
-978 	 -732 	 332 	 85.47 	 -33.425 	 31.43 	
-950 	 -934 	 478 	 87.22 	 -33.39 	 39.13 	
-895 	 -1154 	 575 	 88.445 	 -32.76 	 47.11 	
-935 	 -1376 	 681 	 89.705 	 -31.43 	 55.895 	
-905 	 -1526 	 894 	 90.055 	 -30.24 	 64.785 	
-668 	 -1541 	 1141 	 86.695 	 -27.545 	 73.22 	
-401 	 -1621 	 1203 	 76.02 	 -21.245 	 80.5 	
-274 	 -1866 	 1257 	 60.795 	 -12.915 	 82.88 	
41 	 -1627 	 1447 	 46.375 	 -5.95 	 71.575 	
403 	 -1197 	 1487 	 23.485 	 3.57 	 47.705 	
367 	 -1157 	 1446 	 -13.3 	 17.5 	 15.925 	
142 	 -1088 	 1427 	 -55.16 	 29.54 	 -21.245 	
-111 	 -361 	 1294 	 -98.07 	 37.625 	 -54.88 	
-562 	 594 	 1168 	 -149.87 	 43.89 	 -71.96 	
-1109 	 1315 	 1035 	 -211.4 	 45.43 	 -64.505 	
-1580 	 1827 	 740 	 -277.83 	 39.41 	 -29.4 	
-1894 	 2237 	 357 	 -345.485 	 28.7 	 31.535 	
-2165 	 2581 	 -102 	 -412.615 	 17.71 	 111.335 	
-2394 	 2668 	 -542 	 -478.415 	 7.91 	 196.56 	
-2524 	 2669 	 -917 	 -539.665 	 -0.21 	 271.32 	
-2597 	 2626 	 -1276 	 -595.56 	 -5.565 	 324.17 	
-2561 	 2240 	 -1637 	 -645.715 	 -6.79 	 349.86 	
-2527 	 1682 	 -1834 	 -686.91 	 -2.59 	 346.045 	
-2427 	 1229 	 -1897 	 -716.625 	 3.43 	 313.25 	
-2192 	 841 	 -1853 	 -734.09 	 7.175 	 254.03 	
-1883 	 340 	 -1792 	 -738.22 	 7.63 	 177.765 	
-1567 	 -227 	 -1589 	 -725.445 	 5.775 	 95.165 	
-1336 	 -546 	 -1258 	 -695.905 	 1.75 	 18.585 	
-1333 	 -384 	 -828 	 -656.215 	 -4.935 	 -44.415 	
-1297 	 -642 	 -432 	 -614.81 	 -15.61 	 -82.915 	
-983 	 -1014 	 -98 	 -563.465 	 -26.95 	 -106.855 	
-597 	 -1291 	 20 	 -498.225 	 -33.285 	 -121.555 	
-379 	 -1400 	 82 	 -421.435 	 -32.585 	 -131.95 	
-362 	 -1312 	 159 	 -338.835 	 -31.15 	 -138.53 	
-263 	 -1223 	 220 	 -255.115 	 -31.465 	 -139.72 	
-86 	 -983 	 134 	 -172.34 	 -28.0 	 -134.435 	
-56 	 -788 	 37 	 -93.275 	 -16.8 	 -119.63 	
-168 	 -561 	 11 	 -18.235 	 -3.045 	 -99.05 	
-154 	 -232 	 -58 	 50.33 	 7.665 	 -77.035 	
-17 	 24 	 -186 	 109.41 	 17.955 	 -55.825 	
59 	 215 	 -348 	 160.685 	 31.78 	 -37.24 	
-20 	 434 	 -458 	 205.24 	 48.055 	 -22.225 	
-166 	 677 	 -494 	 241.85 	 62.615 	 -10.465 	
-238 	 847 	 -550 	 268.975 	 73.99 	 -1.435 	
-276 	 913 	 -659 	 288.19 	 84.595 	 5.215 	
-361 	 877 	 -761 	 301.945 	 95.585 	 9.345 	
-486 	 818 	 -807 	 310.87 	 105.91 	 10.64 	
-582 	 775 	 -785 	 314.93 	 113.855 	 8.435 	
-642 	 691 	 -749 	 314.65 	 120.085 	 3.99 	
-721 	 566 	 -732 	 311.57 	 125.545 	 -2.03 	
-826 	 473 	 -693 	 307.09 	 129.955 	 -8.54 	
-933 	 475 	 -641 	 301.175 	 132.755 	 -14.315 	
-1071 	 413 	 -557 	 292.005 	 134.785 	 -17.115 	
-1210 	 286 	 -465 	 280.385 	 136.115 	 -16.94 	
-1333 	 165 	 -435 	 269.675 	 135.31 	 -14.455 	
-1358 	 215 	 -452 	 260.82 	 131.985 	 -11.69 	
-1299 	 366 	 -472 	 250.635 	 128.275 	 -9.73 	
-1309 	 442 	 -478 	 237.685 	 126.35 	 -9.03 	
-1367 	 417 	 -461 	 224.105 	 124.53 	 -10.115 	
-1399 	 413 	 -449 	 210.91 	 121.485 	 -13.51 	
-1372 	 405 	 -444 	 197.4 	 117.985 	 -17.955 	
-1351 	 369 	 -436 	 183.715 	 115.465 	 -22.96 	
-1360 	 316 	 -425 	 170.625 	 113.33 	 -27.825 	
-1352 	 296 	 -422 	 158.655 	 110.285 	 -32.97 	
-1301 	 301 	 -421 	 147.175 	 107.135 	 -37.625 	
-1271 	 313 	 -422 	 136.255 	 104.685 	 -41.335 	
-1263 	 300 	 -424 	 125.685 	 102.725 	 -43.4 	
-1253 	 258 	 -411 	 115.85 	 100.205 	 -43.505 	
-1217 	 184 	 -386 	 107.17 	 97.37 	 -41.055 	
-1186 	 121 	 -364 	 99.785 	 94.815 	 -36.295 	
-1168 	 75 	 -355 	 93.555 	 92.365 	 -29.785 	
-1146 	 38 	 -353 	 88.165 	 89.74 	 -22.155 	
-1119 	 0 	 -348 	 83.685 	 87.115 	 -14.21 	
-1104 	 -30 	 -336 	 80.045 	 84.98 	 -6.825 	
-1081 	 -60 	 -329 	 76.965 	 82.775 	 -0.315 	
-1057 	 -96 	 -325 	 74.48 	 80.43 	 4.515 	
-1000 	 -125 	 -332 	 72.52 	 78.435 	 7.385 	
-981 	 -156 	 -330 	 70.91 	 77.42 	 8.4 	
-965 	 -175 	 -328 	 69.685 	 76.16 	 7.28 	
-934 	 -177 	 -331 	 68.95 	 74.795 	 4.375 	
-905 	 -149 	 -336 	 68.46 	 73.955 	 0.315 	
-894 	 -137 	 -338 	 67.97 	 73.325 	 -4.585 	
-882 	 -149 	 -335 	 67.445 	 72.66 	 -9.905 	
-865 	 -163 	 -327 	 67.13 	 72.1 	 -15.12 	
-847 	 -176 	 -321 	 67.27 	 71.47 	 -19.88 	
-836 	 -182 	 -316 	 67.62 	 70.945 	 -23.555 	
-832 	 -186 	 -306 	 68.285 	 70.385 	 -25.76 	
-831 	 -186 	 -305 	 69.23 	 69.615 	 -25.97 	
-842 	 -174 	 -312 	 70.455 	 68.74 	 -24.15 	
-860 	 -172 	 -316 	 71.715 	 67.725 	 -20.09 	
-867 	 -173 	 -325 	 73.605 	 66.29 	 -14.315 	
-888 	 -163 	 -324 	 75.95 	 64.995 	 -7.21 	
-910 	 -147 	 -318 	 78.26 	 63.42 	 0.735 	
-929 	 -186 	 -308 	 80.22 	 61.495 	 9.38 	
-926 	 -258 	 -311 	 82.74 	 59.22 	 18.095 	
-916 	 -302 	 -326 	 86.345 	 56.98 	 26.46 	
-904 	 -317 	 -336 	 90.37 	 54.81 	 33.95 	
-894 	 -329 	 -322 	 94.5 	 52.325 	 40.145 	
-880 	 -341 	 -302 	 98.7 	 49.735 	 44.765 	
-894 	 -375 	 -265 	 102.41 	 47.565 	 48.16 	
-917 	 -444 	 -236 	 106.225 	 44.905 	 51.1 	
-930 	 -523 	 -219 	 110.67 	 41.65 	 54.285 	
-949 	 -620 	 -172 	 115.395 	 38.395 	 58.24 	
-1030 	 -753 	 -70 	 119.84 	 35.35 	 63.805 	
-1188 	 -957 	 112 	 123.515 	 31.955 	 71.785 	
-1386 	 -1248 	 280 	 125.72 	 27.23 	 82.425 	
-1522 	 -1766 	 369 	 126.35 	 21.07 	 95.06 	
-1597 	 -2198 	 523 	 127.785 	 14.63 	 106.715 	
-1281 	 -2130 	 894 	 127.47 	 7.735 	 111.65 	
-618 	 -1653 	 1216 	 116.235 	 3.22 	 101.22 	
-290 	 -1251 	 1108 	 89.88 	 2.8 	 71.96 	
-60 	 -1102 	 731 	 56.805 	 2.835 	 20.195 	
-112 	 -1222 	 707 	 22.575 	 7.735 	 -48.265 	
-646 	 -1105 	 866 	 -16.31 	 16.1 	 -119.175 	
-1321 	 -204 	 1039 	 -66.815 	 18.27 	 -181.405 	
-1599 	 864 	 934 	 -132.195 	 8.26 	 -218.89 	
-1578 	 1606 	 505 	 -204.225 	 -8.155 	 -224.56 	
-1759 	 2416 	 84 	 -273.945 	 -24.15 	 -195.755 	
-2082 	 3261 	 -328 	 -346.325 	 -42.42 	 -132.3 	
-2302 	 3621 	 -771 	 -425.145 	 -64.365 	 -38.64 	
-2278 	 3616 	 -1244 	 -502.145 	 -86.59 	 67.025 	
-2112 	 3625 	 -1807 	 -571.865 	 -103.04 	 164.5 	
-2016 	 3440 	 -2294 	 -636.3 	 -110.39 	 239.505 	
-1905 	 2927 	 -2651 	 -693.175 	 -110.6 	 281.61 	
-1614 	 2340 	 -2840 	 -736.12 	 -104.965 	 287.525 	
-1190 	 1781 	 -2833 	 -762.72 	 -94.745 	 260.295 	
-702 	 1018 	 -2729 	 -772.94 	 -83.965 	 210.595 	
-366 	 92 	 -2570 	 -765.8 	 -73.15 	 146.125 	
-233 	 -464 	 -2236 	 -737.485 	 -63.945 	 77.595 	
-247 	 -966 	 -1691 	 -694.33 	 -56.875 	 22.435 	
-368 	 -1378 	 -1122 	 -638.295 	 -53.865 	 -22.19 	
-179 	 -1967 	 -689 	 -571.235 	 -54.355 	 -56.07 	
3 	 -2444 	 -429 	 -487.69 	 -51.905 	 -82.845 	
-91 	 -2472 	 -268 	 -386.75 	 -47.32 	 -105.49 	
-193 	 -2171 	 -59 	 -278.845 	 -44.205 	 -119.455 	
-194 	 -1935 	 155 	 -175.105 	 -40.915 	 -121.765 	
-271 	 -1665 	 445 	 -69.79 	 -35.245 	 -111.16 	
-222 	 -1224 	 42 	 33.635 	 -30.03 	 -88.06 	
-187 	 -571 	 -364 	 124.46 	 -19.425 	 -62.685 	
-271 	 -448 	 -335 	 201.6 	 -8.33 	 -32.935 	
-159 	 -166 	 -481 	 275.24 	 -2.765 	 -14.245 	
-50 	 399 	 -831 	 336.42 	 4.13 	 -8.47 	
-117 	 580 	 -1008 	 378.56 	 15.225 	 -7.805 	
-270 	 641 	 -1145 	 410.865 	 24.64 	 -12.18 	
-251 	 890 	 -1329 	 436.835 	 30.17 	 -19.775 	
-141 	 1240 	 -1452 	 451.325 	 36.505 	 -27.265 	
-166 	 1297 	 -1446 	 453.495 	 45.885 	 -29.575 	
-374 	 1160 	 -1377 	 450.59 	 54.215 	 -26.74 	
-550 	 1098 	 -1313 	 445.48 	 58.1 	 -20.44 	
-706 	 1044 	 -1232 	 436.135 	 59.675 	 -10.36 	
-977 	 829 	 -1074 	 422.065 	 61.18 	 2.415 	
-1220 	 465 	 -883 	 406.42 	 60.06 	 13.055 	
-1328 	 208 	 -792 	 392.35 	 55.44 	 16.065 	
-1285 	 116 	 -753 	 379.68 	 49.245 	 9.275 	
-1173 	 179 	 -721 	 365.61 	 44.1 	 -8.05 	
-1095 	 187 	 -696 	 348.53 	 41.16 	 -33.005 	
-1097 	 208 	 -645 	 331.275 	 39.095 	 -63.14 	
-1094 	 340 	 -591 	 314.23 	 37.1 	 -93.59 	
-1099 	 445 	 -568 	 295.435 	 35.14 	 -119.49 	
-1155 	 424 	 -532 	 276.08 	 33.845 	 -136.22 	
-1231 	 397 	 -492 	 258.16 	 31.815 	 -142.87 	
-1314 	 443 	 -466 	 241.885 	 28.49 	 -138.53 	
-1387 	 517 	 -453 	 225.645 	 24.115 	 -124.32 	
-1430 	 538 	 -436 	 209.265 	 18.69 	 -102.55 	
-1442 	 503 	 -407 	 193.62 	 12.425 	 -76.055 	
-1418 	 458 	 -384 	 178.85 	 5.6 	 -47.81 	
-1365 	 399 	 -364 	 164.99 	 -1.54 	 -19.81 	
-1295 	 342 	 -348 	 151.865 	 -8.61 	 5.39 	
-1206 	 278 	 -349 	 139.58 	 -15.225 	 26.425 	
-1119 	 214 	 -357 	 128.31 	 -21.14 	 42.315 	
-1048 	 156 	 -356 	 117.81 	 -26.11 	 52.955 	
-1000 	 100 	 -355 	 107.835 	 -30.31 	 58.835 	
-965 	 49 	 -344 	 98.56 	 -33.95 	 60.865 	
-940 	 16 	 -333 	 90.37 	 -37.17 	 59.885 	
-922 	 -12 	 -329 	 83.195 	 -40.075 	 57.085 	
-917 	 -33 	 -335 	 76.615 	 -42.49 	 53.06 	
-917 	 -60 	 -339 	 70.84 	 -44.625 	 48.58 	
-931 	 -92 	 -337 	 65.8 	 -46.445 	 43.82 	
-955 	 -128 	 -328 	 61.495 	 -48.265 	 38.885 	
-964 	 -156 	 -321 	 57.96 	 -50.05 	 33.705 	
-965 	 -182 	 -322 	 55.09 	 -51.8 	 28.175 	
-957 	 -208 	 -318 	 52.71 	 -53.41 	 22.33 	
-957 	 -214 	 -310 	 50.995 	 -54.845 	 15.75 	
-948 	 -204 	 -299 	 49.805 	 -56.14 	 8.855 	
-936 	 -204 	 -296 	 48.685 	 -57.33 	 1.575 	
-913 	 -222 	 -300 	 47.845 	 -58.38 	 -5.565 	
-904 	 -243 	 -299 	 47.6 	 -59.01 	 -12.355 	
-899 	 -246 	 -283 	 47.775 	 -59.5 	 -18.585 	
-885 	 -253 	 -265 	 48.125 	 -60.13 	 -24.01 	
-857 	 -266 	 -250 	 48.72 	 -60.69 	 -28.385 	
-840 	 -265 	 -245 	 49.805 	 -60.795 	 -31.71 	
-827 	 -254 	 -236 	 51.205 	 -61.005 	 -33.95 	
-813 	 -243 	 -227 	 52.64 	 -61.18 	 -35.175 	
-797 	 -239 	 -230 	 54.11 	 -61.25 	 -35.21 	
-795 	 -242 	 -231 	 55.755 	 -61.005 	 -34.3 	
-815 	 -241 	 -233 	 57.47 	 -60.69 	 -32.515 	
-829 	 -235 	 -237 	 59.5 	 -60.655 	 -30.31 	
-841 	 -223 	 -236 	 61.565 	 -60.515 	 -27.895 	
-852 	 -220 	 -228 	 63.595 	 -60.27 	 -25.585 	
-855 	 -230 	 -219 	 65.45 	 -60.06 	 -23.66 	
-843 	 -256 	 -206 	 67.48 	 -59.955 	 -22.435 	
-820 	 -285 	 -194 	 69.65 	 -59.71 	 -21.98 	
-811 	 -301 	 -176 	 71.855 	 -59.15 	 -22.4 	
-807 	 -306 	 -164 	 74.235 	 -58.345 	 -23.695 	
-805 	 -299 	 -151 	 77.035 	 -57.645 	 -25.55 	
-800 	 -316 	 -118 	 79.45 	 -56.56 	 -27.335 	
-798 	 -369 	 -62 	 81.865 	 -55.475 	 -28.0 	
-798 	 -436 	 1 	 84.805 	 -54.425 	 -26.74 	
-808 	 -553 	 77 	 88.025 	 -53.48 	 -22.575 	
-833 	 -700 	 198 	 91.525 	 -51.975 	 -14.91 	
-884 	 -941 	 397 	 95.06 	 -50.155 	 -2.975 	
-940 	 -1263 	 599 	 98.175 	 -48.58 	 12.915 	
-963 	 -1646 	 792 	 100.485 	 -47.495 	 32.025 	
-885 	 -1899 	 965 	 102.2 	 -46.235 	 52.185 	
-644 	 -2025 	 1169 	 101.255 	 -43.47 	 71.645 	
-328 	 -2007 	 1381 	 95.515 	 -38.36 	 85.435 	
97 	 -1751 	 1635 	 84.245 	 -31.08 	 87.465 	
530 	 -1341 	 1774 	 66.255 	 -21.98 	 74.9 	
682 	 -1095 	 1569 	 38.29 	 -11.025 	 52.675 	
688 	 -931 	 1309 	 -0.07 	 1.26 	 23.905 	
349 	 -645 	 1290 	 -43.89 	 16.52 	 -1.365 	
-289 	 189 	 1201 	 -91.0 	 28.28 	 -16.625 	
-844 	 1316 	 1018 	 -146.72 	 31.045 	 -14.175 	
-1189 	 2013 	 683 	 -213.85 	 28.315 	 12.46 	
-1526 	 2383 	 298 	 -285.11 	 25.865 	 61.565 	
-1931 	 2744 	 -107 	 -355.425 	 22.47 	 127.225 	
-2222 	 3031 	 -557 	 -425.25 	 16.45 	 200.025 	
-2343 	 3159 	 -1061 	 -493.71 	 10.815 	 267.085 	
-2401 	 3067 	 -1540 	 -558.67 	 9.66 	 317.73 	
-2450 	 2878 	 -1969 	 -616.49 	 12.18 	 342.86 	
-2408 	 2438 	 -2281 	 -665.525 	 17.5 	 341.215 	
-2269 	 1870 	 -2450 	 -702.205 	 24.22 	 314.825 	
-2005 	 1399 	 -2548 	 -724.815 	 29.68 	 267.995 	
-1796 	 915 	 -2437 	 -736.225 	 34.545 	 207.515 	
-1626 	 287 	 -2226 	 -733.985 	 36.225 	 141.155 	
-1489 	 -357 	 -1921 	 -711.27 	 34.37 	 78.365 	
-1284 	 -690 	 -1564 	 -669.655 	 28.28 	 21.56 	
-1148 	 -921 	 -1134 	 -619.325 	 20.475 	 -25.76 	
-1180 	 -1289 	 -681 	 -564.095 	 12.46 	 -61.04 	
-1000 	 -1731 	 -246 	 -498.75 	 2.03 	 -91.21 	
-865 	 -1950 	 95 	 -420.77 	 -7.56 	 -118.44 	
-703 	 -1888 	 212 	 -333.13 	 -14.945 	 -140.56 	
-611 	 -1645 	 232 	 -242.69 	 -19.11 	 -153.58 	
-568 	 -1490 	 160 	 -152.39 	 -20.3 	 -152.25 	
-506 	 -1108 	 -79 	 -62.125 	 -19.74 	 -141.19 	
-386 	 -654 	 -264 	 20.23 	 -16.17 	 -122.745 	
-296 	 -376 	 -350 	 90.755 	 -9.975 	 -102.27 	
-233 	 -188 	 -495 	 152.845 	 -2.835 	 -85.085 	
-200 	 50 	 -728 	 207.69 	 5.005 	 -73.99 	
-203 	 286 	 -919 	 252.98 	 14.245 	 -68.145 	
-252 	 459 	 -1014 	 288.225 	 24.57 	 -66.64 	
-304 	 592 	 -1074 	 314.965 	 34.895 	 -67.935 	
-341 	 730 	 -1146 	 334.53 	 44.695 	 -71.75 	
-350 	 853 	 -1193 	 346.71 	 54.18 	 -76.685 	
-360 	 886 	 -1179 	 352.17 	 63.665 	 -82.775 	
-403 	 852 	 -1147 	 353.465 	 72.555 	 -88.27 	
-458 	 797 	 -1134 	 351.54 	 80.15 	 -92.925 	
-529 	 729 	 -1095 	 346.99 	 86.66 	 -95.305 	
-631 	 644 	 -982 	 340.515 	 92.12 	 -94.22 	
-746 	 532 	 -850 	 333.165 	 95.76 	 -88.935 	
-865 	 453 	 -731 	 325.43 	 97.23 	 -79.555 	
-981 	 389 	 -625 	 317.205 	 96.705 	 -65.45 	
-1097 	 323 	 -528 	 308.7 	 94.605 	 -47.355 	
-1191 	 249 	 -471 	 300.79 	 90.72 	 -26.215 	
-1275 	 203 	 -437 	 293.58 	 85.33 	 -3.605 	
-1350 	 174 	 -403 	 286.44 	 78.645 	 18.9 	
-1407 	 158 	 -369 	 279.16 	 71.19 	 39.9 	
-1447 	 154 	 -347 	 272.055 	 63.0 	 57.89 	
-1457 	 146 	 -330 	 264.775 	 54.425 	 72.24 	
-1447 	 132 	 -316 	 257.075 	 45.78 	 82.53 	
-1420 	 117 	 -307 	 249.27 	 37.24 	 88.865 	
-1377 	 102 	 -314 	 241.71 	 28.98 	 91.77 	
-1325 	 94 	 -320 	 233.87 	 21.35 	 91.525 	
-1290 	 71 	 -317 	 225.68 	 14.665 	 89.25 	
-1254 	 23 	 -297 	 217.35 	 8.26 	 85.785 	
-1207 	 -17 	 -299 	 209.37 	 1.68 	 81.48 	
-1152 	 -17 	 -335 	 202.125 	 -3.955 	 77.035 	
-1148 	 67 	 -347 	 194.915 	 -8.19 	 72.52 	
-1148 	 109 	 -321 	 186.095 	 -12.845 	 68.53 	
-1114 	 70 	 -309 	 176.645 	 -18.06 	 64.785 	
-1077 	 39 	 -326 	 168.7 	 -22.33 	 61.67 	
-1095 	 102 	 -336 	 161.49 	 -25.375 	 58.8 	
-1123 	 147 	 -321 	 152.845 	 -28.875 	 56.315 	
-1114 	 132 	 -315 	 143.605 	 -32.97 	 53.76 	
-1112 	 120 	 -314 	 135.31 	 -36.155 	 50.435 	
-1148 	 140 	 -303 	 127.365 	 -38.64 	 46.27 	
-1185 	 141 	 -279 	 118.79 	 -41.545 	 41.055 	
-1174 	 109 	 -261 	 110.285 	 -45.045 	 34.685 	
-1145 	 80 	 -248 	 102.48 	 -47.67 	 27.37 	
-1142 	 72 	 -233 	 95.095 	 -49.63 	 19.46 	
-1141 	 58 	 -219 	 87.815 	 -51.905 	 11.06 	
-1112 	 41 	 -211 	 80.675 	 -54.145 	 2.31 	
-1092 	 34 	 -204 	 74.025 	 -55.79 	 -6.3 	
-1090 	 28 	 -185 	 67.76 	 -57.19 	 -14.315 	
-1092 	 15 	 -170 	 61.635 	 -58.555 	 -21.21 	
-1071 	 0 	 -165 	 55.86 	 -60.305 	 -26.845 	
-1040 	 -9 	 -165 	 50.82 	 -61.74 	 -31.01 	
-1022 	 -1 	 -156 	 46.165 	 -62.65 	 -33.88 	
-1014 	 17 	 -140 	 41.755 	 -63.525 	 -35.49 	
-1012 	 15 	 -124 	 37.205 	 -64.435 	 -35.84 	
-1000 	 1 	 -112 	 33.145 	 -65.345 	 -35.07 	
-1000 	 -11 	 -101 	 29.61 	 -65.975 	 -32.97 	
-1022 	 -12 	 -96 	 26.425 	 -66.535 	 -29.715 	
-1030 	 -31 	 -92 	 23.38 	 -67.34 	 -25.48 	
-1014 	 -69 	 -82 	 20.755 	 -68.075 	 -20.72 	
-993 	 -108 	 -57 	 18.69 	 -68.46 	 -15.995 	
-965 	 -128 	 -27 	 17.08 	 -68.565 	 -11.41 	
-932 	 -145 	 -2 	 15.75 	 -68.565 	 -7.0 	
-890 	 -179 	 18 	 14.42 	 -68.25 	 -2.38 	
-859 	 -227 	 36 	 13.44 	 -67.62 	 2.38 	
-831 	 -272 	 46 	 13.02 	 -66.71 	 7.525 	
-789 	 -302 	 50 	 13.16 	 -65.87 	 13.09 	
-762 	 -322 	 62 	 13.405 	 -64.435 	 18.515 	
-750 	 -342 	 104 	 14.035 	 -62.475 	 23.975 	
-736 	 -371 	 165 	 14.84 	 -60.48 	 29.33 	
-724 	 -453 	 264 	 15.4 	 -58.205 	 35.28 	
-720 	 -606 	 406 	 15.295 	 -55.37 	 42.28 	
-767 	 -798 	 553 	 15.155 	 -51.94 	 50.855 	
-826 	 -1135 	 747 	 14.735 	 -48.335 	 61.95 	
-826 	 -1493 	 946 	 13.79 	 -44.31 	 74.34 	
-735 	 -1793 	 1103 	 11.69 	 -39.795 	 86.17 	
-643 	 -1883 	 1389 	 8.4 	 -33.285 	 93.415 	
-353 	 -1722 	 1539 	 -0.105 	 -26.81 	 91.735 	
13 	 -1403 	 1475 	 -15.155 	 -19.67 	 76.79 	
375 	 -961 	 1403 	 -35.14 	 -9.24 	 50.155 	
393 	 -764 	 1352 	 -61.88 	 5.25 	 17.815 	
114 	 -664 	 1402 	 -93.66 	 20.545 	 -13.16 	
-326 	 -412 	 1446 	 -131.39 	 32.655 	 -32.865 	
-781 	 3 	 1389 	 -175.07 	 38.745 	 -34.65 	
-1095 	 692 	 1219 	 -222.04 	 39.06 	 -18.27 	
-1379 	 1361 	 841 	 -273.735 	 37.835 	 14.91 	
-1742 	 1684 	 402 	 -328.685 	 36.75 	 60.06 	
-2117 	 1992 	 47 	 -382.27 	 33.565 	 107.485 	
-2269 	 2294 	 -331 	 -434.945 	 27.895 	 150.185 	
-2294 	 2386 	 -710 	 -487.935 	 23.205 	 181.09 	
-2322 	 2328 	 -1054 	 -537.67 	 20.755 	 194.25 	
-2367 	 2262 	 -1368 	 -580.615 	 19.39 	 188.615 	
-2370 	 2165 	 -1621 	 -617.05 	 17.22 	 166.355 	
-2292 	 2033 	 -1799 	 -646.135 	 14.105 	 132.475 	
-2073 	 1730 	 -1890 	 -665.49 	 10.5 	 92.085 	
-1897 	 1340 	 -1885 	 -672.315 	 7.07 	 48.86 	
-1749 	 992 	 -1783 	 -665.105 	 1.12 	 9.695 	
-1560 	 655 	 -1599 	 -646.03 	 -6.615 	 -19.32 	
-1419 	 282 	 -1307 	 -617.855 	 -12.67 	 -36.19 	
-1340 	 -207 	 -926 	 -579.95 	 -17.85 	 -41.86 	
-1303 	 -558 	 -610 	 -529.025 	 -23.8 	 -42.63 	
-1029 	 -854 	 -386 	 -467.635 	 -29.61 	 -45.71 	
-803 	 -1129 	 -217 	 -400.855 	 -31.535 	 -52.815 	
-656 	 -1352 	 18 	 -329.63 	 -30.835 	 -68.95 	
-528 	 -1417 	 105 	 -252.945 	 -29.19 	 -90.51 	
-448 	 -1274 	 48 	 -173.215 	 -26.005 	 -109.34 	
-432 	 -1010 	 -38 	 -94.675 	 -21.0 	 -117.705 	
-415 	 -696 	 -120 	 -20.65 	 -14.84 	 -112.84 	
-371 	 -453 	 -261 	 46.515 	 -7.665 	 -96.425 	
-369 	 -307 	 -403 	 107.975 	 1.155 	 -74.2 	
-326 	 -147 	 -551 	 163.94 	 9.835 	 -53.235 	
-296 	 46 	 -666 	 212.31 	 18.55 	 -38.045 	
-267 	 162 	 -749 	 250.88 	 27.44 	 -29.855 	
-286 	 222 	 -839 	 282.38 	 36.96 	 -28.14 	
-340 	 344 	 -937 	 308.875 	 46.445 	 -31.395 	
-348 	 519 	 -1002 	 329.735 	 55.16 	 -37.485 	
-338 	 670 	 -1028 	 343.49 	 63.875 	 -44.8 	
-372 	 745 	 -1034 	 351.505 	 72.765 	 -51.52 	
-433 	 762 	 -1045 	 355.635 	 80.57 	 -56.98 	
-475 	 767 	 -1045 	 356.93 	 86.87 	 -60.83 	
-524 	 762 	 -1010 	 355.53 	 92.505 	 -62.195 	
-618 	 718 	 -924 	 352.03 	 97.545 	 -60.585 	
-718 	 663 	 -812 	 347.445 	 100.66 	 -56.455 	
-782 	 639 	 -728 	 342.335 	 101.36 	 -50.295 	
-826 	 627 	 -662 	 336.56 	 101.045 	 -41.825 	
-902 	 579 	 -589 	 329.665 	 100.31 	 -30.87 	
-992 	 494 	 -515 	 322.56 	 98.0 	 -17.78 	
-1045 	 417 	 -459 	 316.155 	 93.835 	 -2.94 	
-1066 	 384 	 -418 	 310.135 	 88.97 	 13.195 	
-1112 	 352 	 -367 	 303.765 	 83.93 	 30.485 	
-1179 	 309 	 -307 	 297.36 	 77.84 	 48.125 	
-1183 	 287 	 -275 	 291.515 	 70.21 	 65.31 	
-1190 	 291 	 -258 	 285.6 	 62.615 	 81.445 	
-1220 	 286 	 -243 	 278.915 	 55.405 	 96.565 	
-1257 	 268 	 -221 	 272.02 	 47.705 	 110.005 	
-1279 	 264 	 -197 	 265.16 	 39.235 	 121.1 	
-1284 	 268 	 -189 	 258.09 	 30.8 	 129.675 	
-1304 	 268 	 -186 	 250.39 	 23.275 	 135.31 	
-1338 	 249 	 -167 	 242.06 	 15.82 	 137.655 	
-1342 	 202 	 -154 	 233.485 	 7.875 	 136.815 	
-1310 	 154 	 -155 	 225.05 	 0.28 	 132.72 	
-1290 	 127 	 -162 	 216.545 	 -5.985 	 125.475 	
-1295 	 88 	 -157 	 207.41 	 -11.585 	 115.29 	
-1272 	 28 	 -143 	 198.205 	 -17.29 	 102.41 	
-1217 	 -5 	 -123 	 189.28 	 -22.68 	 87.045 	
-1161 	 -33 	 -131 	 180.39 	 -26.81 	 70.07 	
-1175 	 -18 	 -131 	 171.57 	 -29.4 	 51.345 	
-1180 	 -13 	 -109 	 162.365 	 -32.585 	 31.605 	
-1134 	 -31 	 -108 	 152.705 	 -36.365 	 11.095 	
-1090 	 -46 	 -114 	 143.78 	 -38.675 	 -9.03 	
-1131 	 2 	 -94 	 135.485 	 -39.305 	 -28.315 	
-1205 	 53 	 -48 	 126.49 	 -40.915 	 -45.99 	
-1208 	 48 	 -3 	 117.04 	 -43.96 	 -61.04 	
-1216 	 48 	 35 	 108.535 	 -46.13 	 -72.905 	
-1310 	 117 	 74 	 100.59 	 -47.565 	 -80.92 	
-1435 	 147 	 125 	 91.525 	 -50.015 	 -84.735 	
-1485 	 63 	 155 	 82.145 	 -54.04 	 -84.7 	
-1474 	 -51 	 167 	 74.515 	 -58.17 	 -81.62 	
-1470 	 -94 	 185 	 67.97 	 -61.145 	 -76.65 	
-1485 	 -74 	 216 	 61.285 	 -64.47 	 -71.645 	
-1405 	 -140 	 272 	 53.48 	 -68.25 	 -66.955 	
-1302 	 -197 	 290 	 46.41 	 -71.4 	 -65.17 	
-1211 	 -210 	 293 	 40.53 	 -73.15 	 -65.24 	
-1159 	 -192 	 327 	 34.23 	 -74.025 	 -67.69 	
-1097 	 -279 	 391 	 26.985 	 -75.005 	 -71.26 	
-1016 	 -411 	 438 	 20.37 	 -75.215 	 -75.635 	
-974 	 -494 	 500 	 15.015 	 -73.99 	 -79.905 	
-986 	 -559 	 629 	 9.065 	 -71.715 	 -82.985 	
-956 	 -737 	 773 	 1.75 	 -69.615 	 -84.315 	
-814 	 -967 	 860 	 -5.6 	 -66.955 	 -84.35 	
-699 	 -1034 	 979 	 -11.48 	 -62.37 	 -84.7 	
-568 	 -1020 	 1099 	 -18.515 	 -56.35 	 -85.225 	
-367 	 -1044 	 1227 	 -30.73 	 -48.755 	 -87.045 	
-123 	 -1078 	 1317 	 -46.865 	 -39.27 	 -90.755 	
59 	 -939 	 1366 	 -62.755 	 -27.825 	 -95.585 	
184 	 -639 	 1405 	 -80.92 	 -16.065 	 -99.05 	
334 	 -508 	 1466 	 -105.175 	 -3.43 	 -94.78 	
297 	 -549 	 1579 	 -134.015 	 11.445 	 -78.96 	
142 	 -422 	 1593 	 -165.2 	 24.64 	 -50.085 	
1 	 -4 	 1492 	 -199.885 	 34.3 	 -9.45 	
-78 	 348 	 1237 	 -239.505 	 43.505 	 40.95 	
-255 	 650 	 973 	 -280.735 	 54.32 	 95.655 	
-383 	 893 	 620 	 -322.7 	 64.225 	 150.255 	
-589 	 1087 	 249 	 -365.715 	 75.6 	 200.97 	
-840 	 1280 	 -79 	 -408.66 	 88.13 	 243.46 	
-1060 	 1455 	 -411 	 -450.52 	 100.31 	 274.68 	
-1228 	 1637 	 -742 	 -491.015 	 112.21 	 292.075 	
-1375 	 1758 	 -1063 	 -529.795 	 124.6 	 295.435 	
-1550 	 1907 	 -1310 	 -563.85 	 136.43 	 285.32 	
-1707 	 2165 	 -1520 	 -593.04 	 145.32 	 262.815 	
-1796 	 2361 	 -1745 	 -617.89 	 150.885 	 231.42 	
-1776 	 2328 	 -1920 	 -637.7 	 154.525 	 194.46 	
-1855 	 2135 	 -1931 	 -649.81 	 157.15 	 152.985 	
-1989 	 1730 	 -1912 	 -651.035 	 155.155 	 115.535 	
-2109 	 1240 	 -1759 	 -638.295 	 147.805 	 85.645 	
-2079 	 646 	 -1525 	 -614.39 	 135.555 	 65.66 	
-1952 	 76 	 -1174 	 -578.795 	 122.78 	 54.355 	
-1886 	 -423 	 -791 	 -531.615 	 110.355 	 47.985 	
-1785 	 -1018 	 -440 	 -473.445 	 95.935 	 42.56 	
-1630 	 -1368 	 -64 	 -404.6 	 79.345 	 26.635 	
-1356 	 -1647 	 158 	 -330.715 	 62.3 	 3.92 	
-1178 	 -1652 	 269 	 -252.525 	 48.86 	 -31.5 	
-1126 	 -1722 	 360 	 -171.395 	 38.92 	 -69.685 	
-1104 	 -1499 	 337 	 -86.45 	 27.755 	 -108.92 	
-928 	 -1031 	 46 	 -5.425 	 16.8 	 -141.26 	
-782 	 -606 	 -190 	 65.52 	 11.48 	 -163.73 	
-742 	 -364 	 -343 	 129.745 	 9.765 	 -174.51 	
-669 	 3 	 -611 	 187.985 	 8.54 	 -181.825 	
-591 	 370 	 -859 	 234.675 	 9.905 	 -185.22 	
-566 	 505 	 -998 	 268.695 	 14.84 	 -185.36 	
-602 	 551 	 -1125 	 295.225 	 21.14 	 -184.87 	
-589 	 730 	 -1233 	 316.785 	 27.265 	 -185.15 	
-523 	 975 	 -1258 	 330.12 	 34.545 	 -185.08 	
-467 	 1067 	 -1207 	 334.145 	 43.4 	 -183.82 	
-487 	 1016 	 -1154 	 333.27 	 52.29 	 -181.895 	
-515 	 983 	 -1134 	 330.085 	 59.92 	 -179.69 	
-537 	 969 	 -1112 	 323.925 	 66.85 	 -176.33 	
-599 	 887 	 -1020 	 314.755 	 73.92 	 -170.38 	
-670 	 768 	 -912 	 305.13 	 79.31 	 -161.665 	
-727 	 695 	 -825 	 295.54 	 82.985 	 -150.535 	
-777 	 599 	 -746 	 285.39 	 85.505 	 -136.115 	
-846 	 462 	 -668 	 274.925 	 87.255 	 -119.0 	
-910 	 329 	 -600 	 265.72 	 87.395 	 -99.96 	
-928 	 266 	 -552 	 257.845 	 85.855 	 -80.5 	
-934 	 227 	 -521 	 250.215 	 83.755 	 -60.935 	
-957 	 167 	 -495 	 242.445 	 81.445 	 -42.0 	
-991 	 100 	 -470 	 235.41 	 78.47 	 -24.605 	
-1000 	 48 	 -446 	 229.285 	 74.62 	 -9.135 	
-990 	 14 	 -417 	 223.65 	 70.21 	 4.025 	
-984 	 -13 	 -392 	 218.4 	 65.94 	 14.91 	
-992 	 -15 	 -390 	 213.325 	 61.635 	 23.45 	
-1004 	 -27 	 -394 	 208.355 	 57.26 	 30.03 	
-1022 	 -88 	 -385 	 203.21 	 52.885 	 35.105 	
-1030 	 -174 	 -370 	 198.87 	 48.055 	 39.025 	
-1027 	 -228 	 -352 	 195.475 	 43.33 	 41.44 	
-1018 	 -261 	 -347 	 192.22 	 38.64 	 42.665 	
-1008 	 -304 	 -348 	 188.79 	 34.16 	 42.7 	
-990 	 -343 	 -352 	 185.71 	 29.645 	 41.195 	
-972 	 -350 	 -359 	 183.155 	 25.41 	 38.185 	
-951 	 -333 	 -363 	 180.32 	 21.42 	 33.74 	
-936 	 -329 	 -367 	 176.925 	 17.815 	 27.86 	
-919 	 -336 	 -372 	 173.67 	 14.385 	 20.79 	
-905 	 -345 	 -369 	 170.31 	 11.13 	 12.88 	
-893 	 -359 	 -367 	 166.845 	 8.19 	 4.515 	
-879 	 -374 	 -359 	 163.485 	 5.355 	 -4.095 	
-868 	 -381 	 -352 	 159.95 	 2.73 	 -12.635 	
-863 	 -390 	 -347 	 156.555 	 0.28 	 -20.685 	
-873 	 -402 	 -334 	 153.09 	 -2.065 	 -28.035 	
-877 	 -400 	 -319 	 149.765 	 -4.515 	 -34.86 	
-890 	 -386 	 -300 	 146.335 	 -6.93 	 -40.88 	
-910 	 -402 	 -282 	 142.695 	 -9.31 	 -45.815 	
-932 	 -410 	 -263 	 139.09 	 -11.83 	 -49.77 	
-955 	 -399 	 -241 	 135.975 	 -14.735 	 -52.15 	
-976 	 -363 	 -224 	 132.755 	 -18.025 	 -53.375 	
-1055 	 -389 	 -225 	 128.8 	 -21.105 	 -52.815 	
-1000 	 -390 	 -214 	 125.965 	 -24.5 	 -50.68 	
-1074 	 -321 	 -185 	 122.605 	 -27.475 	 -48.58 	
-1115 	 -306 	 -111 	 118.09 	 -31.045 	 -45.22 	
-1112 	 -349 	 -82 	 113.54 	 -35.49 	 -42.0 	
-1105 	 -350 	 -96 	 110.04 	 -39.48 	 -39.41 	
-1134 	 -289 	 -94 	 106.54 	 -42.91 	 -37.03 	
-1148 	 -286 	 -81 	 101.465 	 -46.865 	 -34.825 	
-1115 	 -325 	 -76 	 96.6 	 -51.345 	 -33.495 	
-1070 	 -316 	 -74 	 92.085 	 -54.95 	 -33.075 	
-1061 	 -296 	 -54 	 87.255 	 -57.855 	 -32.76 	
-1056 	 -314 	 -28 	 81.69 	 -60.935 	 -32.445 	
-1033 	 -376 	 12 	 75.985 	 -64.26 	 -31.64 	
-1027 	 -408 	 67 	 70.7 	 -66.815 	 -30.31 	
-1046 	 -399 	 141 	 65.1 	 -68.95 	 -28.105 	
-1087 	 -411 	 244 	 58.485 	 -71.155 	 -24.885 	
-1104 	 -493 	 353 	 50.89 	 -73.64 	 -20.37 	
-1037 	 -614 	 431 	 42.315 	 -75.74 	 -15.225 	
-910 	 -706 	 537 	 33.88 	 -76.23 	 -9.695 	
-716 	 -775 	 769 	 23.38 	 -74.725 	 -4.165 	
-439 	 -800 	 1137 	 8.54 	 -71.015 	 0.945 	
-31 	 -983 	 1434 	 -10.71 	 -65.52 	 5.775 	
449 	 -1325 	 1667 	 -31.115 	 -57.82 	 11.025 	
906 	 -1777 	 1802 	 -52.185 	 -47.845 	 18.025 	
1169 	 -2156 	 1909 	 -74.235 	 -35.0 	 27.755 	
1233 	 -2033 	 2032 	 -98.315 	 -20.335 	 37.73 	
1114 	 -1446 	 1994 	 -129.185 	 -5.18 	 48.335 	
785 	 -923 	 1834 	 -167.51 	 10.01 	 61.46 	
366 	 -431 	 1589 	 -208.005 	 22.61 	 77.35 	
-61 	 0 	 1262 	 -250.81 	 32.55 	 99.715 	
-441 	 356 	 987 	 -297.01 	 41.09 	 128.975 	
-770 	 720 	 713 	 -345.59 	 48.09 	 162.155 	
-1036 	 1084 	 391 	 -394.38 	 53.69 	 194.67 	
-1199 	 1298 	 11 	 -442.855 	 58.135 	 222.005 	
-1355 	 1440 	 -358 	 -489.055 	 63.14 	 240.31 	
-1618 	 1750 	 -693 	 -531.37 	 68.04 	 247.065 	
-1802 	 2081 	 -1065 	 -569.415 	 69.965 	 242.235 	
-1820 	 2188 	 -1408 	 -601.16 	 70.245 	 228.9 	
-1939 	 2296 	 -1714 	 -625.24 	 71.4 	 209.65 	
-2222 	 2347 	 -1928 	 -643.265 	 71.26 	 188.65 	
-2468 	 2155 	 -1944 	 -653.135 	 66.5 	 169.61 	
-2508 	 1933 	 -1967 	 -648.795 	 56.84 	 155.54 	
-2429 	 1595 	 -2065 	 -630.805 	 45.36 	 149.625 	
-2315 	 1214 	 -1891 	 -602.42 	 35.28 	 147.945 	
-2124 	 794 	 -1534 	 -567.91 	 25.935 	 148.085 	
-1919 	 -2 	 -1054 	 -525.91 	 16.205 	 140.14 	
-1749 	 -641 	 -648 	 -469.07 	 4.48 	 114.38 	
-1378 	 -849 	 -563 	 -400.68 	 -10.64 	 63.595 	
-1059 	 -1198 	 -633 	 -331.975 	 -19.25 	 4.235 	
-1297 	 -1125 	 204 	 -260.925 	 -25.69 	 -68.145 	
-941 	 -1279 	 531 	 -185.71 	 -45.465 	 -133.525 	
-688 	 -623 	 -124 	 -106.12 	 -55.65 	 -185.045 	
-815 	 -283 	 -516 	 -38.395 	 -51.31 	 -205.59 	
-1063 	 -328 	 -348 	 23.94 	 -50.295 	 -204.785 	
-753 	 -151 	 -449 	 88.725 	 -58.835 	 -193.97 	
-297 	 289 	 -899 	 144.095 	 -61.18 	 -182.805 	
-219 	 263 	 -1082 	 183.12 	 -49.945 	 -169.715 	
-452 	 14 	 -1055 	 217.385 	 -37.765 	 -160.44 	
-413 	 137 	 -1134 	 251.93 	 -32.935 	 -158.655 	
-140 	 513 	 -1244 	 278.005 	 -27.125 	 -160.65 	
-45 	 607 	 -1226 	 291.62 	 -13.65 	 -161.49 	
-191 	 473 	 -1144 	 301.21 	 1.225 	 -161.315 	
-268 	 512 	 -1139 	 310.835 	 11.375 	 -162.575 	
-218 	 664 	 -1131 	 315.7 	 20.23 	 -162.505 	
-263 	 656 	 -1054 	 313.775 	 31.36 	 -158.2 	
-414 	 517 	 -952 	 309.995 	 41.3 	 -150.115 	
-512 	 485 	 -892 	 307.475 	 47.075 	 -139.37 	
-530 	 551 	 -843 	 303.8 	 50.995 	 -124.845 	
-610 	 564 	 -761 	 297.43 	 55.335 	 -105.735 	
-775 	 489 	 -662 	 290.185 	 58.38 	 -83.125 	
-890 	 402 	 -587 	 283.29 	 58.065 	 -58.52 	
-937 	 339 	 -528 	 276.745 	 55.65 	 -33.18 	
-981 	 260 	 -480 	 270.095 	 53.06 	 -7.63 	
-1060 	 190 	 -425 	 263.9 	 49.7 	 16.625 	
-1115 	 159 	 -371 	 257.95 	 44.695 	 38.395 	
-1127 	 146 	 -340 	 251.79 	 38.71 	 56.805 	
-1164 	 91 	 -310 	 244.895 	 33.39 	 71.61 	
-1231 	 -21 	 -274 	 237.475 	 27.895 	 82.635 	
-1255 	 -118 	 -246 	 230.545 	 21.63 	 89.25 	
-1245 	 -126 	 -250 	 224.455 	 15.085 	 91.0 	
-1244 	 -54 	 -251 	 218.05 	 9.415 	 88.445 	
-1267 	 -1 	 -237 	 210.14 	 4.165 	 81.97 	
-1242 	 24 	 -218 	 201.46 	 -1.225 	 72.38 	
-1231 	 89 	 -229 	 192.43 	 -6.02 	 59.57 	
-1229 	 139 	 -247 	 183.015 	 -9.765 	 46.9 	
-1257 	 127 	 -250 	 173.005 	 -13.3 	 34.685 	
-1253 	 100 	 -231 	 163.38 	 -17.045 	 24.395 	
-1263 	 72 	 -208 	 154.455 	 -20.475 	 16.975 	
-1286 	 36 	 -179 	 145.775 	 -23.905 	 13.335 	
-1262 	 -3 	 -157 	 137.305 	 -28.245 	 13.335 	
-1241 	 -21 	 -132 	 129.605 	 -32.13 	 15.995 	
-1214 	 -26 	 -134 	 122.115 	 -34.825 	 21.84 	
-1265 	 -81 	 -109 	 114.205 	 -37.52 	 28.56 	
-1252 	 -180 	 -80 	 106.645 	 -41.16 	 35.77 	
-1205 	 -241 	 -69 	 100.31 	 -44.59 	 41.86 	
-1185 	 -217 	 -69 	 94.885 	 -47.145 	 45.99 	
-1160 	 -179 	 -58 	 88.795 	 -49.56 	 47.915 	
-1106 	 -210 	 -44 	 82.075 	 -51.765 	 47.495 	
-1051 	 -257 	 -28 	 75.95 	 -53.165 	 44.31 	
-1022 	 -261 	 -12 	 70.42 	 -53.9 	 38.57 	
-989 	 -248 	 -3 	 64.785 	 -54.46 	 30.625 	
-961 	 -278 	 30 	 59.045 	 -54.565 	 21.595 	
-952 	 -313 	 59 	 53.935 	 -54.53 	 11.725 	
-942 	 -317 	 82 	 49.42 	 -54.6 	 2.1 	
-938 	 -309 	 105 	 44.975 	 -54.425 	 -6.265 	
-940 	 -314 	 124 	 40.67 	 -54.215 	 -12.74 	
-946 	 -335 	 142 	 36.785 	 -54.145 	 -16.975 	
-948 	 -342 	 159 	 33.53 	 -54.25 	 -18.865 	
-946 	 -329 	 175 	 30.59 	 -54.46 	 -18.62 	
-939 	 -312 	 198 	 27.615 	 -54.635 	 -16.555 	
-930 	 -282 	 216 	 24.185 	 -54.705 	 -12.6 	
-901 	 -260 	 240 	 20.44 	 -54.53 	 -7.0 	
-890 	 -286 	 242 	 17.29 	 -54.74 	 0.63 	
-869 	 -274 	 230 	 14.98 	 -55.475 	 8.995 	
-836 	 -249 	 243 	 12.53 	 -55.545 	 18.34 	
-851 	 -246 	 282 	 9.17 	 -54.53 	 27.685 	
-884 	 -248 	 334 	 5.775 	 -53.795 	 36.995 	
-884 	 -274 	 356 	 2.135 	 -53.97 	 46.725 	
-851 	 -357 	 352 	 -1.82 	 -54.075 	 56.98 	
-821 	 -410 	 352 	 -4.69 	 -53.69 	 67.305 	
-783 	 -294 	 387 	 -7.0 	 -52.885 	 77.455 	
-666 	 -202 	 447 	 -11.585 	 -51.975 	 88.76 	
-573 	 -365 	 483 	 -18.13 	 -49.945 	 102.97 	
-553 	 -578 	 550 	 -23.415 	 -46.9 	 120.715 	
-494 	 -687 	 645 	 -28.0 	 -44.135 	 142.695 	
-388 	 -814 	 723 	 -34.58 	 -41.02 	 169.575 	
-262 	 -979 	 807 	 -42.455 	 -37.345 	 200.34 	
-154 	 -1121 	 838 	 -50.225 	 -33.25 	 232.435 	
-101 	 -1057 	 874 	 -57.855 	 -28.35 	 262.85 	
-66 	 -892 	 916 	 -68.88 	 -21.665 	 290.885 	
-144 	 -878 	 920 	 -84.945 	 -12.775 	 316.4 	
-376 	 -981 	 926 	 -101.605 	 -3.85 	 338.765 	
-685 	 -872 	 937 	 -116.48 	 3.29 	 355.775 	
-915 	 -580 	 900 	 -133.805 	 9.31 	 365.365 	
-1034 	 -412 	 874 	 -156.205 	 16.975 	 366.59 	
-1206 	 -442 	 842 	 -180.985 	 26.215 	 358.4 	
-1478 	 -378 	 766 	 -204.12 	 34.37 	 339.325 	
-1611 	 -127 	 648 	 -226.415 	 40.04 	 310.24 	
-1616 	 118 	 506 	 -250.495 	 46.305 	 273.665 	
-1642 	 266 	 401 	 -275.835 	 54.495 	 231.945 	
-1565 	 424 	 313 	 -300.3 	 60.725 	 185.92 	
-1353 	 720 	 190 	 -323.435 	 63.91 	 137.025 	
-1115 	 1105 	 12 	 -345.73 	 66.045 	 88.41 	
-1052 	 1481 	 -151 	 -366.31 	 68.81 	 43.085 	
-1109 	 1841 	 -282 	 -383.39 	 69.79 	 5.39 	
-1264 	 2210 	 -389 	 -397.6 	 67.865 	 -21.665 	
-1435 	 2490 	 -476 	 -411.215 	 62.65 	 -36.05 	
-1557 	 2525 	 -539 	 -422.59 	 55.055 	 -36.47 	
-1701 	 2453 	 -634 	 -427.35 	 45.815 	 -27.335 	
-1700 	 2254 	 -685 	 -424.865 	 35.21 	 -11.55 	
-1667 	 2076 	 -631 	 -416.01 	 25.06 	 5.145 	
-1671 	 1838 	 -570 	 -402.85 	 15.33 	 18.62 	
-1625 	 1472 	 -532 	 -384.23 	 5.46 	 26.635 	
-1607 	 1139 	 -475 	 -359.1 	 -4.06 	 22.785 	
-1540 	 804 	 -374 	 -329.315 	 -12.95 	 8.54 	
-1380 	 607 	 -279 	 -296.485 	 -22.295 	 -15.75 	
-1192 	 354 	 -232 	 -263.095 	 -30.87 	 -47.775 	
-1081 	 117 	 -222 	 -226.17 	 -36.82 	 -83.055 	
-1014 	 -3 	 -206 	 -185.325 	 -41.825 	 -118.335 	
-930 	 11 	 -213 	 -143.745 	 -46.725 	 -149.765 	
-835 	 33 	 -250 	 -103.74 	 -50.015 	 -172.935 	
-773 	 24 	 -297 	 -65.345 	 -50.75 	 -187.355 	
-738 	 29 	 -352 	 -27.755 	 -49.875 	 -194.005 	
-688 	 62 	 -422 	 8.085 	 -47.74 	 -195.02 	
-613 	 110 	 -466 	 40.775 	 -44.03 	 -192.815 	
-548 	 131 	 -488 	 69.79 	 -38.535 	 -189.105 	
-508 	 158 	 -532 	 96.11 	 -31.85 	 -185.255 	
-474 	 213 	 -569 	 119.84 	 -23.94 	 -181.125 	
-470 	 270 	 -592 	 140.56 	 -15.085 	 -176.225 	
-490 	 319 	 -595 	 158.305 	 -5.95 	 -170.135 	
-500 	 352 	 -596 	 173.46 	 2.8 	 -162.68 	
-503 	 388 	 -588 	 185.955 	 11.48 	 -154.56 	
-521 	 406 	 -566 	 196.0 	 20.02 	 -145.775 	
-544 	 405 	 -534 	 204.12 	 27.93 	 -136.78 	
-565 	 415 	 -507 	 210.63 	 35.0 	 -127.645 	
-596 	 429 	 -487 	 215.46 	 41.44 	 -118.02 	
-644 	 419 	 -462 	 218.96 	 47.145 	 -107.835 	
-700 	 402 	 -422 	 221.445 	 51.94 	 -97.195 	
-731 	 407 	 -372 	 223.09 	 55.545 	 -85.75 	
-762 	 413 	 -334 	 223.65 	 58.17 	 -73.465 	
-804 	 389 	 -303 	 223.405 	 59.71 	 -60.235 	
-853 	 366 	 -271 	 222.845 	 60.34 	 -46.55 	
-894 	 361 	 -250 	 222.18 	 60.2 	 -32.97 	
-937 	 362 	 -232 	 221.095 	 59.36 	 -20.055 	
-976 	 347 	 -209 	 219.45 	 57.89 	 -8.225 	
-1012 	 325 	 -180 	 217.455 	 55.755 	 1.925 	
-1039 	 299 	 -149 	 215.32 	 53.06 	 10.185 	
-1051 	 268 	 -122 	 212.905 	 49.84 	 16.555 	
-1047 	 227 	 -104 	 210.385 	 46.2 	 21.14 	
-1062 	 190 	 -85 	 207.865 	 42.805 	 23.52 	
-1069 	 161 	 -80 	 205.485 	 39.305 	 24.325 	
-1087 	 136 	 -58 	 202.965 	 35.49 	 23.24 	
-1071 	 114 	 -49 	 200.13 	 31.29 	 20.58 	
-1061 	 87 	 -34 	 197.505 	 27.72 	 16.695 	
-1079 	 91 	 -17 	 195.16 	 24.36 	 11.69 	
-1077 	 98 	 -9 	 192.36 	 20.475 	 5.81 	
-1056 	 71 	 -5 	 189.035 	 16.695 	 -0.525 	
-1056 	 42 	 0 	 186.06 	 13.545 	 -6.895 	
-1066 	 36 	 5 	 183.365 	 10.465 	 -13.02 	
-1057 	 42 	 16 	 180.565 	 6.895 	 -18.48 	
-1032 	 50 	 31 	 177.59 	 3.535 	 -23.065 	
-1025 	 64 	 49 	 174.685 	 0.525 	 -26.565 	
-1033 	 82 	 66 	 171.535 	 -2.205 	 -28.875 	
-1031 	 94 	 78 	 168.14 	 -5.25 	 -29.505 	
-1014 	 103 	 74 	 164.675 	 -8.4 	 -28.595 	
-1022 	 105 	 87 	 161.21 	 -11.025 	 -26.25 	
-1040 	 110 	 103 	 157.85 	 -13.72 	 -22.995 	
-1043 	 111 	 116 	 154.14 	 -16.695 	 -19.355 	
-1038 	 109 	 131 	 150.22 	 -19.565 	 -15.855 	
-1031 	 103 	 143 	 146.125 	 -22.05 	 -12.67 	
-1026 	 100 	 156 	 142.1 	 -24.57 	 -10.01 	
-1016 	 84 	 173 	 137.725 	 -26.74 	 -7.665 	
-1006 	 70 	 204 	 133.315 	 -28.77 	 -5.635 	
-1004 	 61 	 243 	 129.045 	 -30.59 	 -3.535 	
-1028 	 63 	 313 	 124.495 	 -32.305 	 -1.19 	
-1006 	 63 	 349 	 119.35 	 -34.055 	 1.96 	
-988 	 -17 	 458 	 113.89 	 -34.44 	 7.0 	
-1028 	 -87 	 585 	 108.85 	 -34.265 	 14.28 	
-1029 	 -345 	 740 	 102.935 	 -33.95 	 25.725 	
-945 	 -767 	 923 	 96.635 	 -32.69 	 41.475 	
-844 	 -1250 	 1114 	 91.315 	 -29.925 	 60.725 	
-730 	 -1573 	 1352 	 87.255 	 -25.655 	 80.78 	
-558 	 -1674 	 1524 	 81.235 	 -21.0 	 96.81 	
-319 	 -1647 	 1586 	 71.645 	 -15.085 	 103.565 	
-3 	 -1434 	 1617 	 59.395 	 -5.425 	 96.565 	
237 	 -1193 	 1570 	 42.35 	 8.925 	 75.565 	
252 	 -1179 	 1542 	 19.005 	 26.425 	 44.59 	
155 	 -1044 	 1612 	 -7.665 	 43.89 	 6.615 	
33 	 -529 	 1642 	 -38.745 	 60.095 	 -31.5 	
-287 	 -81 	 1528 	 -78.085 	 74.725 	 -60.305 	
-686 	 32 	 1377 	 -121.695 	 85.365 	 -75.215 	
-1057 	 344 	 1255 	 -164.255 	 92.54 	 -76.895 	
-1409 	 900 	 1091 	 -210.49 	 97.51 	 -65.94 	
-1680 	 1282 	 923 	 -263.585 	 98.525 	 -46.27 	
-1727 	 1451 	 706 	 -317.555 	 94.115 	 -25.095 	
-1657 	 1781 	 393 	 -367.115 	 87.08 	 -9.205 	
-1677 	 2335 	 63 	 -414.47 	 79.73 	 -1.05 	
-1650 	 2759 	 -286 	 -464.17 	 70.91 	 -1.295 	
-1715 	 2814 	 -587 	 -513.135 	 61.285 	 -5.95 	
-1978 	 2714 	 -827 	 -553.945 	 49.805 	 -11.865 	
-2269 	 2714 	 -1037 	 -584.92 	 34.02 	 -16.52 	
-2231 	 2534 	 -1221 	 -610.575 	 15.33 	 -15.575 	
-2307 	 1988 	 -1231 	 -630.105 	 -0.91 	 -8.54 	
-2501 	 1331 	 -1193 	 -636.65 	 -19.355 	 0.875 	
-2493 	 923 	 -1159 	 -628.18 	 -41.72 	 9.52 	
-2274 	 611 	 -954 	 -610.12 	 -63.175 	 10.08 	
-2161 	 440 	 -641 	 -583.87 	 -79.52 	 1.295 	
-2037 	 -50 	 -411 	 -550.83 	 -96.705 	 -18.025 	
-1942 	 -357 	 -189 	 -507.325 	 -114.38 	 -54.46 	
-1816 	 -654 	 -66 	 -459.095 	 -131.25 	 -102.515 	
-1736 	 -931 	 94 	 -404.81 	 -143.85 	 -155.645 	
-1619 	 -952 	 188 	 -344.645 	 -156.38 	 -215.39 	
-1453 	 -907 	 186 	 -281.05 	 -167.37 	 -268.345 	
-1235 	 -767 	 64 	 -215.705 	 -175.175 	 -309.645 	
-1027 	 -599 	 -75 	 -151.025 	 -177.065 	 -334.845 	
-847 	 -376 	 -262 	 -89.005 	 -174.02 	 -342.79 	
-635 	 -213 	 -446 	 -31.85 	 -166.95 	 -335.37 	
-425 	 -72 	 -639 	 19.53 	 -155.4 	 -317.59 	
-280 	 3 	 -763 	 64.61 	 -139.195 	 -293.51 	
-133 	 90 	 -845 	 103.775 	 -120.295 	 -267.89 	
1 	 188 	 -908 	 136.325 	 -99.155 	 -243.355 	
67 	 232 	 -959 	 163.03 	 -75.88 	 -220.395 	
115 	 303 	 -998 	 184.975 	 -51.73 	 -199.99 	
127 	 408 	 -1006 	 202.37 	 -27.58 	 -181.3 	
116 	 510 	 -969 	 215.11 	 -3.99 	 -163.17 	
89 	 565 	 -922 	 223.685 	 18.34 	 -145.04 	
47 	 589 	 -882 	 228.76 	 39.48 	 -126.735 	
-24 	 599 	 -827 	 231.21 	 59.29 	 -107.695 	
-97 	 609 	 -752 	 231.56 	 76.965 	 -87.43 	
-163 	 602 	 -686 	 229.915 	 92.225 	 -65.8 	
-238 	 565 	 -616 	 227.115 	 105.595 	 -42.735 	
-324 	 535 	 -534 	 224.28 	 117.04 	 -18.305 	
-406 	 512 	 -449 	 220.85 	 126.56 	 6.65 	
-502 	 464 	 -358 	 216.685 	 134.19 	 31.71 	
-606 	 380 	 -264 	 212.765 	 139.86 	 56.07 	
-684 	 307 	 -179 	 209.65 	 143.36 	 78.68 	
-762 	 267 	 -107 	 207.025 	 145.67 	 99.4 	
-864 	 208 	 -39 	 204.365 	 146.93 	 118.335 	
-974 	 110 	 24 	 202.055 	 146.685 	 135.52 	
-1064 	 30 	 76 	 200.655 	 145.04 	 150.325 	
-1145 	 -18 	 117 	 200.13 	 142.31 	 162.855 	
-1230 	 -76 	 154 	 199.22 	 139.02 	 172.97 	
-1320 	 -158 	 189 	 198.45 	 134.68 	 180.005 	
-1389 	 -212 	 195 	 198.065 	 129.64 	 183.085 	
-1414 	 -229 	 169 	 197.785 	 124.145 	 181.405 	
-1411 	 -226 	 143 	 197.225 	 118.825 	 174.86 	
-1402 	 -228 	 137 	 195.93 	 114.1 	 163.835 	
-1390 	 -221 	 138 	 194.215 	 109.515 	 148.75 	
-1360 	 -205 	 131 	 191.765 	 104.93 	 130.69 	
-1321 	 -197 	 105 	 188.615 	 100.87 	 110.915 	
-1303 	 -179 	 74 	 185.15 	 97.65 	 90.79 	
-1291 	 -150 	 53 	 181.3 	 94.815 	 71.505 	
-1262 	 -90 	 34 	 177.065 	 91.875 	 53.655 	
-1236 	 -25 	 19 	 172.165 	 89.53 	 38.29 	
-1232 	 32 	 10 	 166.74 	 87.71 	 26.25 	
-1246 	 73 	 12 	 160.965 	 85.61 	 17.57 	
-1235 	 114 	 8 	 155.12 	 83.02 	 12.18 	
-1214 	 149 	 -1 	 148.855 	 80.605 	 9.94 	
-1225 	 160 	 -5 	 142.485 	 78.785 	 10.675 	
-1265 	 157 	 16 	 136.325 	 76.51 	 13.58 	
-1274 	 160 	 38 	 130.41 	 73.185 	 17.675 	
-1260 	 157 	 48 	 124.46 	 69.86 	 22.365 	
-1260 	 131 	 54 	 118.685 	 67.025 	 26.915 	
-1269 	 103 	 70 	 113.54 	 63.98 	 30.625 	
-1255 	 81 	 89 	 108.5 	 60.585 	 33.145 	
-1222 	 60 	 104 	 103.67 	 57.155 	 34.51 	
-1193 	 28 	 115 	 98.945 	 54.075 	 35.035 	
-1167 	 -9 	 117 	 94.535 	 51.135 	 34.615 	
-1146 	 -40 	 120 	 90.79 	 48.3 	 33.6 	
-1128 	 -54 	 132 	 87.465 	 45.395 	 32.235 	
-1120 	 -74 	 145 	 84.105 	 42.7 	 30.66 	
-1115 	 -108 	 156 	 80.815 	 40.11 	 29.155 	
-1102 	 -133 	 159 	 78.085 	 37.31 	 27.58 	
-1091 	 -136 	 166 	 75.565 	 34.825 	 25.9 	
-1084 	 -131 	 169 	 73.185 	 32.235 	 24.255 	
-1079 	 -133 	 174 	 70.7 	 29.785 	 22.75 	
-1084 	 -153 	 181 	 68.145 	 27.44 	 21.42 	
-1099 	 -174 	 200 	 66.01 	 25.095 	 20.475 	
-1118 	 -198 	 228 	 63.595 	 22.82 	 20.02 	
-1135 	 -247 	 255 	 60.76 	 20.79 	 19.95 	
-1166 	 -333 	 292 	 58.275 	 18.55 	 19.95 	
-1159 	 -368 	 346 	 56.42 	 16.17 	 19.145 	
-1131 	 -376 	 423 	 54.11 	 14.735 	 17.71 	
-1128 	 -478 	 528 	 50.33 	 14.315 	 16.415 	
-1092 	 -696 	 669 	 45.535 	 14.315 	 15.89 	
-935 	 -958 	 756 	 40.67 	 14.805 	 16.17 	
-854 	 -1261 	 848 	 35.84 	 17.885 	 17.22 	
-719 	 -1490 	 1033 	 30.94 	 22.225 	 17.57 	
-473 	 -1632 	 1212 	 23.555 	 28.21 	 15.435 	
-320 	 -1749 	 1376 	 12.355 	 37.24 	 10.605 	
-204 	 -1849 	 1477 	 -1.995 	 47.005 	 2.03 	
-229 	 -1877 	 1519 	 -18.55 	 56.77 	 -10.15 	
-286 	 -1651 	 1509 	 -38.29 	 65.87 	 -26.985 	
-356 	 -1229 	 1477 	 -63.91 	 75.985 	 -46.445 	
-519 	 -678 	 1396 	 -95.27 	 86.66 	 -65.905 	
-806 	 -208 	 1301 	 -131.95 	 95.165 	 -80.43 	
-1074 	 176 	 1176 	 -171.5 	 98.07 	 -86.485 	
-1256 	 638 	 997 	 -213.85 	 97.44 	 -81.97 	
-1389 	 978 	 793 	 -260.26 	 95.76 	 -65.38 	
-1571 	 1176 	 619 	 -308.035 	 92.05 	 -41.16 	
-1659 	 1427 	 383 	 -353.675 	 83.16 	 -15.54 	
-1649 	 1850 	 76 	 -398.405 	 71.925 	 6.055 	
-1686 	 2129 	 -319 	 -444.465 	 61.67 	 20.72 	
-1909 	 2122 	 -670 	 -487.2 	 52.045 	 25.97 	
-2075 	 2227 	 -967 	 -521.92 	 38.745 	 17.92 	
-2108 	 2450 	 -1203 	 -552.37 	 23.065 	 -1.015 	
-2120 	 2393 	 -1383 	 -581.28 	 7.105 	 -26.355 	
-2280 	 2070 	 -1456 	 -601.93 	 -9.905 	 -56.385 	
-2377 	 1701 	 -1495 	 -609.91 	 -30.87 	 -87.605 	
-2242 	 1381 	 -1405 	 -606.76 	 -54.6 	 -115.815 	
-2289 	 1146 	 -1142 	 -596.19 	 -77.175 	 -139.02 	
-2174 	 834 	 -884 	 -578.06 	 -101.465 	 -156.345 	
-2039 	 620 	 -630 	 -549.71 	 -125.09 	 -173.215 	
-1884 	 275 	 -419 	 -514.185 	 -145.705 	 -187.46 	
-1758 	 19 	 -204 	 -472.115 	 -162.47 	 -203.7 	
-1565 	 -170 	 -83 	 -425.67 	 -178.115 	 -222.915 	
-1320 	 -336 	 -81 	 -373.695 	 -191.38 	 -241.99 	
-1069 	 -381 	 -180 	 -316.645 	 -200.025 	 -257.88 	
-899 	 -301 	 -239 	 -257.985 	 -202.86 	 -266.805 	
-804 	 -207 	 -249 	 -201.705 	 -201.53 	 -265.685 	
-679 	 -158 	 -297 	 -149.31 	 -198.205 	 -255.29 	
-501 	 -113 	 -404 	 -100.205 	 -192.36 	 -238.455 	
-319 	 -140 	 -532 	 -54.04 	 -182.49 	 -217.245 	
-189 	 -101 	 -634 	 -10.465 	 -168.63 	 -195.755 	
-92 	 -42 	 -655 	 28.0 	 -152.425 	 -174.3 	
-33 	 -53 	 -641 	 60.2 	 -135.59 	 -154.42 	
47 	 -112 	 -682 	 89.11 	 -118.23 	 -136.395 	
105 	 -100 	 -751 	 116.34 	 -99.505 	 -120.75 	
121 	 -45 	 -788 	 140.595 	 -79.24 	 -106.68 	
83 	 2 	 -765 	 160.615 	 -58.975 	 -94.08 	
66 	 30 	 -730 	 177.66 	 -40.145 	 -82.985 	
45 	 82 	 -716 	 192.325 	 -22.26 	 -72.8 	
-3 	 152 	 -702 	 204.365 	 -4.865 	 -63.035 	
-38 	 203 	 -665 	 213.955 	 11.69 	 -52.57 	
-108 	 258 	 -592 	 221.62 	 26.88 	 -41.125 	
-161 	 316 	 -521 	 227.395 	 40.355 	 -27.895 	
-200 	 370 	 -470 	 231.385 	 51.975 	 -12.32 	
-245 	 405 	 -443 	 233.87 	 62.23 	 5.74 	
-336 	 404 	 -395 	 235.655 	 71.12 	 26.425 	
-398 	 416 	 -355 	 237.195 	 78.12 	 49.105 	
-482 	 441 	 -295 	 238.28 	 83.685 	 73.43 	
-580 	 450 	 -230 	 238.595 	 87.465 	 98.77 	
-699 	 404 	 -161 	 238.28 	 89.635 	 124.32 	
-815 	 335 	 -93 	 238.35 	 89.985 	 148.855 	
-899 	 280 	 -52 	 238.945 	 88.69 	 170.975 	
-961 	 239 	 -34 	 239.575 	 86.31 	 189.875 	
-1045 	 193 	 -12 	 239.995 	 83.475 	 204.96 	
-1139 	 139 	 13 	 240.38 	 79.695 	 215.74 	
-1221 	 87 	 24 	 240.66 	 74.935 	 221.48 	
-1266 	 39 	 20 	 241.01 	 69.475 	 222.39 	
-1319 	 0 	 24 	 241.01 	 64.47 	 218.295 	
-1352 	 -42 	 14 	 240.73 	 59.115 	 210.0 	
-1358 	 -68 	 -14 	 240.275 	 53.41 	 196.91 	
-1315 	 -77 	 -46 	 239.645 	 48.545 	 180.145 	
-1280 	 -64 	 -63 	 238.42 	 44.695 	 159.81 	
-1239 	 -51 	 -71 	 236.46 	 41.37 	 136.955 	
-1184 	 -26 	 -80 	 234.465 	 38.465 	 112.385 	
-1129 	 11 	 -103 	 231.805 	 36.645 	 87.64 	
-1087 	 43 	 -121 	 228.62 	 35.84 	 64.085 	
-1120 	 97 	 -124 	 225.085 	 35.77 	 42.665 	
-1088 	 97 	 -145 	 221.165 	 35.56 	 25.445 	
-1093 	 134 	 -143 	 217.035 	 35.455 	 10.71 	
-1134 	 164 	 -105 	 212.94 	 36.435 	 1.295 	
-1149 	 208 	 -82 	 208.495 	 36.085 	 -4.97 	
-1125 	 215 	 -70 	 203.455 	 35.385 	 -7.595 	
-1085 	 223 	 -94 	 198.275 	 35.245 	 -6.545 	
-1102 	 242 	 -87 	 193.41 	 35.665 	 -3.29 	
-1125 	 295 	 -68 	 188.44 	 35.805 	 1.61 	
-1143 	 318 	 -35 	 182.63 	 35.07 	 7.49 	
-1133 	 322 	 -7 	 176.645 	 34.09 	 14.0 	
-1136 	 294 	 1 	 170.485 	 33.425 	 20.965 	
-1148 	 278 	 12 	 164.85 	 32.375 	 27.86 	
-1148 	 262 	 38 	 159.18 	 31.255 	 34.51 	
-1149 	 259 	 77 	 153.405 	 30.24 	 40.425 	
-1156 	 261 	 147 	 147.49 	 29.33 	 46.06 	
-1133 	 213 	 214 	 141.155 	 28.28 	 51.905 	
-1141 	 67 	 282 	 134.96 	 27.545 	 58.38 	
-1154 	 -76 	 359 	 129.5 	 27.195 	 65.765 	
-1205 	 -223 	 476 	 124.285 	 27.37 	 73.71 	
-1239 	 -378 	 621 	 118.93 	 27.125 	 81.235 	
-1206 	 -543 	 756 	 113.33 	 26.915 	 87.43 	
-1131 	 -855 	 937 	 107.345 	 28.63 	 92.33 	
-1080 	 -1294 	 1195 	 100.975 	 33.145 	 95.69 	
-1029 	 -1679 	 1477 	 94.185 	 38.675 	 96.67 	
-968 	 -2074 	 1689 	 84.21 	 44.835 	 94.185 	
-895 	 -2366 	 1789 	 71.61 	 51.415 	 83.51 	
-792 	 -2315 	 1824 	 57.96 	 59.745 	 59.08 	
-572 	 -1748 	 1787 	 40.6 	 70.21 	 16.695 	
-368 	 -996 	 1661 	 13.055 	 84.595 	 -40.32 	
-419 	 -564 	 1494 	 -24.5 	 100.8 	 -103.145 	
-676 	 -348 	 1408 	 -65.38 	 114.73 	 -161.63 	
-987 	 216 	 1344 	 -107.625 	 123.41 	 -204.47 	
-1293 	 873 	 1233 	 -157.745 	 128.17 	 -219.94 	
-1618 	 1243 	 1094 	 -214.655 	 128.555 	 -205.66 	
-1783 	 1693 	 906 	 -270.375 	 122.57 	 -168.805 	
-1768 	 2147 	 560 	 -325.255 	 112.315 	 -115.815 	
-1824 	 2344 	 190 	 -379.575 	 101.64 	 -54.46 	
-1904 	 2477 	 -213 	 -430.115 	 90.37 	 3.22 	
-1939 	 2535 	 -603 	 -476.7 	 79.485 	 49.84 	
-1967 	 2541 	 -952 	 -518.56 	 69.02 	 79.8 	
-1999 	 2369 	 -1271 	 -554.61 	 59.115 	 92.715 	
-1963 	 2095 	 -1532 	 -583.065 	 49.28 	 89.355 	
-1927 	 1847 	 -1670 	 -603.015 	 39.9 	 72.87 	
-1979 	 1615 	 -1685 	 -614.075 	 29.26 	 46.935 	
-1955 	 1173 	 -1703 	 -613.725 	 15.4 	 19.425 	
-1824 	 868 	 -1548 	 -598.99 	 0.805 	 -8.68 	
-1666 	 836 	 -1279 	 -575.82 	 -13.825 	 -33.32 	
-1732 	 579 	 -917 	 -549.99 	 -28.49 	 -53.41 	
-1651 	 140 	 -616 	 -514.43 	 -44.905 	 -68.915 	
-1505 	 -55 	 -379 	 -467.355 	 -61.005 	 -89.285 	
-1323 	 -265 	 -235 	 -413.84 	 -73.885 	 -106.89 	
-1179 	 -368 	 -122 	 -356.685 	 -85.12 	 -127.785 	
-1012 	 -411 	 -103 	 -297.605 	 -95.165 	 -147.7 	
-867 	 -423 	 -161 	 -235.305 	 -101.43 	 -160.58 	
-719 	 -248 	 -271 	 -171.535 	 -104.195 	 -166.215 	
-612 	 -30 	 -356 	 -111.265 	 -104.055 	 -161.875 	
-495 	 66 	 -454 	 -55.72 	 -101.78 	 -147.91 	
-376 	 117 	 -619 	 -2.59 	 -96.95 	 -128.66 	
-236 	 248 	 -773 	 46.48 	 -88.83 	 -108.325 	
-132 	 344 	 -824 	 87.85 	 -77.805 	 -89.425 	
-71 	 291 	 -843 	 121.835 	 -65.87 	 -73.99 	
3 	 229 	 -911 	 152.075 	 -53.725 	 -63.28 	
91 	 247 	 -1008 	 179.795 	 -40.285 	 -55.825 	
116 	 327 	 -1056 	 203.875 	 -24.85 	 -49.91 	
74 	 386 	 -1039 	 222.985 	 -8.61 	 -43.75 	
11 	 412 	 -987 	 238.14 	 6.125 	 -37.765 	
-11 	 441 	 -953 	 250.32 	 19.32 	 -32.06 	
-58 	 465 	 -917 	 259.805 	 32.375 	 -26.285 	
-144 	 470 	 -845 	 266.84 	 45.045 	 -20.23 	
-222 	 511 	 -734 	 271.915 	 55.79 	 -14.0 	
-265 	 562 	 -630 	 274.645 	 64.75 	 -6.58 	
-313 	 582 	 -567 	 275.1 	 72.17 	 3.36 	
-410 	 570 	 -512 	 274.645 	 78.47 	 16.38 	
-528 	 579 	 -453 	 273.98 	 83.16 	 32.55 	
-642 	 614 	 -388 	 272.615 	 85.995 	 51.38 	
-761 	 630 	 -329 	 269.955 	 86.975 	 72.17 	
-882 	 614 	 -272 	 266.77 	 86.52 	 93.87 	
-1000 	 589 	 -220 	 263.515 	 84.56 	 115.22 	
-1111 	 566 	 -180 	 259.98 	 81.235 	 135.1 	
-1213 	 511 	 -144 	 255.92 	 76.755 	 152.565 	
-1299 	 428 	 -116 	 251.93 	 71.19 	 166.285 	
-1358 	 344 	 -104 	 247.975 	 65.275 	 174.965 	
-1398 	 270 	 -90 	 244.055 	 59.15 	 177.94 	
-1419 	 200 	 -73 	 239.96 	 52.99 	 174.65 	
-1408 	 130 	 -76 	 235.655 	 46.795 	 165.06 	
-1382 	 81 	 -79 	 231.315 	 41.125 	 149.415 	
-1334 	 24 	 -92 	 226.835 	 36.015 	 129.465 	
-1309 	 12 	 -112 	 222.145 	 32.025 	 105.455 	
-1286 	 10 	 -128 	 217.49 	 28.7 	 80.395 	
-1271 	 40 	 -144 	 212.275 	 25.585 	 54.285 	
-1231 	 61 	 -155 	 206.71 	 23.1 	 29.47 	
-1234 	 102 	 -150 	 201.145 	 21.28 	 6.51 	
-1245 	 134 	 -144 	 195.265 	 19.425 	 -13.475 	
-1245 	 179 	 -138 	 189.28 	 17.395 	 -29.995 	
-1228 	 253 	 -125 	 183.19 	 15.505 	 -42.385 	
-1218 	 285 	 -115 	 176.225 	 13.895 	 -50.12 	
-1207 	 285 	 -115 	 169.225 	 11.865 	 -53.375 	
-1192 	 305 	 -114 	 163.205 	 9.485 	 -52.43 	
-1184 	 341 	 -105 	 156.87 	 7.315 	 -47.74 	
-1180 	 355 	 -87 	 150.045 	 4.865 	 -40.075 	
-1169 	 327 	 -64 	 143.185 	 2.03 	 -30.38 	
-1148 	 308 	 -46 	 136.92 	 -1.05 	 -19.67 	
-1129 	 294 	 -28 	 130.795 	 -3.955 	 -8.54 	
-1117 	 262 	 -5 	 124.285 	 -6.895 	 2.415 	
-1099 	 211 	 20 	 118.09 	 -9.94 	 12.425 	
-1084 	 161 	 42 	 112.35 	 -13.055 	 21.07 	
-1074 	 119 	 55 	 106.82 	 -15.96 	 28.07 	
-1081 	 86 	 73 	 101.535 	 -18.585 	 33.11 	
-1079 	 52 	 87 	 96.39 	 -21.63 	 36.155 	
-1054 	 26 	 99 	 91.315 	 -24.36 	 37.38 	
-1041 	 7 	 106 	 86.485 	 -26.565 	 37.065 	
-1039 	 -1 	 118 	 81.62 	 -28.63 	 35.245 	
-1029 	 0 	 122 	 76.825 	 -30.73 	 32.165 	
-1030 	 2 	 119 	 72.31 	 -32.725 	 28.35 	
-1033 	 8 	 114 	 67.83 	 -34.545 	 23.94 	
-1037 	 1 	 117 	 63.105 	 -35.98 	 19.39 	
-1036 	 -11 	 124 	 58.555 	 -37.415 	 14.945 	
-1030 	 -3 	 132 	 54.355 	 -38.85 	 10.64 	
-1024 	 9 	 141 	 50.085 	 -40.04 	 6.965 	
-1020 	 7 	 146 	 45.57 	 -41.16 	 3.99 	
-1018 	 -10 	 141 	 41.09 	 -42.315 	 1.925 	
-1012 	 -17 	 133 	 37.135 	 -43.295 	 0.63 	
-1014 	 -10 	 138 	 33.11 	 -44.135 	 -0.14 	
-1008 	 2 	 142 	 29.05 	 -45.045 	 -0.805 	
